Model,DPO2002B
Firmware Version,1.52

Point Format,Y,
Horizontal Units,S,
Horizontal Scale,0.001,
Sample Interval,1.92012e-06,
Filter Frequency,7e+07,
Record Length,5207,
Gating,0.0% to 100.0%,
Probe Attenuation,10,
Vertical Units,V,
Vertical Offset,0.6,
Vertical Scale,0.5,
Label,,
TIME,CH1,CH1 Peak Detect
-1.180e-03,-0.76,-0.84
-1.178e-03,-0.76,-0.68
-1.176e-03,-0.72,-0.82
-1.174e-03,-0.74,-0.64
-1.172e-03,-0.68,-0.78
-1.170e-03,-0.7,-0.6
-1.168e-03,-0.68,-0.82
-1.167e-03,-0.78,-0.68
-1.165e-03,-0.72,-0.76
-1.163e-03,-0.56,-0.44
-1.161e-03,-0.52,-0.64
-1.159e-03,-0.58,-0.48
-1.157e-03,-0.58,-0.76
-1.155e-03,-0.7,-0.54
-1.153e-03,-0.68,-0.82
-1.151e-03,-0.72,-0.64
-1.149e-03,-0.8,-0.82
-1.147e-03,-0.72,-0.68
-1.145e-03,-0.8,-0.82
-1.144e-03,-0.7,-0.66
-1.142e-03,-0.78,-0.82
-1.140e-03,-0.7,-0.68
-1.138e-03,-0.78,-0.8
-1.136e-03,-0.66,-0.62
-1.134e-03,-0.76,-0.82
-1.132e-03,-0.74,-0.7
-1.130e-03,-0.78,-0.82
-1.128e-03,-0.72,-0.62
-1.126e-03,-0.66,-0.78
-1.124e-03,-0.72,-0.62
-1.122e-03,-0.62,-0.82
-1.120e-03,-0.74,-0.6
-1.119e-03,-0.74,-0.86
-1.117e-03,-0.8,-0.66
-1.115e-03,-0.68,-0.82
-1.113e-03,-0.78,-0.64
-1.111e-03,-0.72,-0.86
-1.109e-03,-0.78,-0.72
-1.107e-03,-0.8,-0.9
-1.105e-03,-0.78,-0.72
-1.103e-03,-0.84,-0.88
-1.101e-03,-0.72,-0.68
-1.099e-03,-0.78,-0.8
-1.097e-03,-0.68,-0.66
-1.096e-03,-0.76,-0.78
-1.094e-03,-0.68,-0.64
-1.092e-03,-0.72,-0.88
-1.090e-03,-0.76,-0.64
-1.088e-03,-0.84,-0.9
-1.086e-03,-0.72,-0.64
-1.084e-03,-0.66,-0.74
-1.082e-03,-0.66,-0.58
-1.080e-03,-0.62,-0.74
-1.078e-03,-0.62,-0.56
-1.076e-03,-0.66,-0.76
-1.074e-03,-0.72,-0.6
-1.072e-03,-0.64,-0.78
-1.071e-03,-0.72,-0.6
-1.069e-03,-0.7,-0.8
-1.067e-03,-0.76,-0.66
-1.065e-03,-0.7,-0.76
-1.063e-03,-0.68,-0.6
-1.061e-03,-0.64,-0.76
-1.059e-03,-0.68,-0.58
-1.057e-03,-0.7,-0.74
-1.055e-03,-0.62,-0.58
-1.053e-03,-0.66,-0.8
-1.051e-03,-0.72,-0.62
-1.049e-03,-0.74,-0.86
-1.048e-03,-0.74,-0.66
-1.046e-03,-0.78,-0.88
-1.044e-03,-0.78,-0.66
-1.042e-03,-0.74,-0.76
-1.040e-03,-0.58,-0.54
-1.038e-03,-0.62,-0.76
-1.036e-03,-0.6,-0.52
-1.034e-03,-0.74,-0.82
-1.032e-03,-0.72,-0.62
-1.030e-03,-0.72,-0.84
-1.028e-03,-0.76,-0.68
-1.026e-03,-0.76,-0.84
-1.024e-03,-0.72,-0.64
-1.023e-03,-0.7,-0.78
-1.021e-03,-0.72,-0.62
-1.019e-03,-0.68,-0.76
-1.017e-03,-0.68,-0.52
-1.015e-03,-0.54,-0.64
-1.013e-03,-0.5,-0.38
-1.011e-03,-0.4,-0.64
-1.009e-03,-0.46,-0.38
-1.007e-03,-0.58,-0.78
-1.005e-03,-0.7,-0.56
-1.003e-03,-0.72,-0.76
-1.001e-03,-0.62,-0.56
-9.995e-04,-0.64,-0.8
-9.976e-04,-0.7,-0.58
-9.957e-04,-0.72,-0.76
-9.937e-04,-0.64,-0.52
-9.918e-04,-0.6,-0.72
-9.899e-04,-0.58,-0.52
-9.880e-04,-0.66,-0.8
-9.861e-04,-0.64,-0.58
-9.841e-04,-0.74,-0.78
-9.822e-04,-0.68,-0.6
-9.803e-04,-0.66,-0.76
-9.784e-04,-0.7,-0.62
-9.765e-04,-0.66,-0.82
-9.745e-04,-0.78,-0.66
-9.726e-04,-0.68,-0.8
-9.707e-04,-0.78,-0.66
-9.688e-04,-0.66,-0.76
-9.669e-04,-0.66,-0.58
-9.649e-04,-0.62,-0.86
-9.630e-04,-0.74,-0.58
-9.611e-04,-0.82,-0.92
-9.592e-04,-0.86,-0.76
-9.573e-04,-0.86,-0.92
-9.553e-04,-0.84,-0.68
-9.534e-04,-0.74,-0.8
-9.515e-04,-0.7,-0.6
-9.496e-04,-0.68,-0.74
-9.477e-04,-0.64,-0.58
-9.457e-04,-0.68,-0.76
-9.438e-04,-0.66,-0.6
-9.419e-04,-0.74,-0.84
-9.400e-04,-0.72,-0.66
-9.381e-04,-0.8,-0.86
-9.361e-04,-0.78,-0.7
-9.342e-04,-0.74,-0.82
-9.323e-04,-0.7,-0.56
-9.304e-04,-0.6,-0.68
-9.285e-04,-0.62,-0.54
-9.265e-04,-0.58,-0.82
-9.246e-04,-0.68,-0.54
-9.227e-04,-0.72,-0.86
-9.208e-04,-0.84,-0.72
-9.189e-04,-0.76,-0.86
-9.169e-04,-0.76,-0.66
-9.150e-04,-0.66,-0.88
-9.131e-04,-0.78,-0.66
-9.112e-04,-0.82,-0.92
-9.093e-04,-0.88,-0.7
-9.073e-04,-0.74,-0.8
-9.054e-04,-0.66,-0.56
-9.035e-04,-0.64,-0.66
-9.016e-04,-0.58,-0.5
-8.997e-04,-0.6,-0.88
-8.977e-04,-0.7,-0.56
-8.958e-04,-0.86,-0.9
-8.939e-04,-0.84,-0.76
-8.920e-04,-0.86,-0.88
-8.901e-04,-0.7,-0.58
-8.881e-04,-0.66,-0.72
-8.862e-04,-0.64,-0.56
-8.843e-04,-0.64,-0.72
-8.824e-04,-0.66,-0.56
-8.805e-04,-0.62,-0.72
-8.785e-04,-0.68,-0.58
-8.766e-04,-0.62,-0.68
-8.747e-04,-0.66,-0.56
-8.728e-04,-0.6,-0.72
-8.709e-04,-0.68,-0.58
-8.689e-04,-0.64,-0.74
-8.670e-04,-0.7,-0.48
-8.651e-04,-0.5,-0.58
-8.632e-04,-0.52,-0.44
-8.613e-04,-0.52,-0.68
-8.593e-04,-0.6,-0.46
-8.574e-04,-0.6,-0.68
-8.555e-04,-0.58,-0.52
-8.536e-04,-0.62,-0.68
-8.517e-04,-0.6,-0.56
-8.497e-04,-0.66,-0.76
-8.478e-04,-0.6,-0.56
-8.459e-04,-0.72,-0.74
-8.440e-04,-0.6,-0.58
-8.421e-04,-0.66,-0.78
-8.401e-04,-0.64,-0.6
-8.382e-04,-0.74,-0.82
-8.363e-04,-0.7,-0.62
-8.344e-04,-0.64,-0.7
-8.325e-04,-0.66,-0.54
-8.305e-04,-0.56,-0.64
-8.286e-04,-0.56,-0.46
-8.267e-04,-0.52,-0.72
-8.248e-04,-0.66,-0.48
-8.229e-04,-0.62,-0.76
-8.209e-04,-0.7,-0.6
-8.190e-04,-0.66,-0.86
-8.171e-04,-0.78,-0.66
-8.152e-04,-0.78,-0.86
-8.133e-04,-0.74,-0.64
-8.113e-04,-0.7,-0.76
-8.094e-04,-0.64,-0.54
-8.075e-04,-0.6,-0.64
-8.056e-04,-0.52,-0.48
-8.037e-04,-0.6,-0.66
-8.017e-04,-0.56,-0.52
-7.998e-04,-0.64,-0.7
-7.979e-04,-0.58,-0.56
-7.960e-04,-0.66,-0.7
-7.941e-04,-0.62,-0.56
-7.921e-04,-0.66,-0.78
-7.902e-04,-0.66,-0.58
-7.883e-04,-0.78,-0.86
-7.864e-04,-0.78,-0.66
-7.845e-04,-0.68,-0.84
-7.825e-04,-0.76,-0.64
-7.806e-04,-0.74,-0.78
-7.787e-04,-0.68,-0.6
-7.768e-04,-0.64,-0.78
-7.749e-04,-0.7,-0.56
-7.729e-04,-0.56,-0.72
-7.710e-04,-0.7,-0.54
-7.691e-04,-0.64,-0.74
-7.672e-04,-0.72,-0.62
-7.653e-04,-0.64,-0.72
-7.633e-04,-0.66,-0.58
-7.614e-04,-0.64,-0.72
-7.595e-04,-0.64,-0.56
-7.576e-04,-0.66,-0.72
-7.557e-04,-0.64,-0.6
-7.537e-04,-0.66,-0.72
-7.518e-04,-0.58,-0.52
-7.499e-04,-0.7,-0.8
-7.480e-04,-0.72,-0.6
-7.461e-04,-0.7,-0.74
-7.441e-04,-0.64,-0.6
-7.422e-04,-0.7,-0.78
-7.403e-04,-0.68,-0.64
-7.384e-04,-0.7,-0.76
-7.365e-04,-0.66,-0.58
-7.345e-04,-0.62,-0.74
-7.326e-04,-0.7,-0.56
-7.307e-04,-0.66,-0.76
-7.288e-04,-0.72,-0.6
-7.269e-04,-0.7,-0.8
-7.249e-04,-0.72,-0.58
-7.230e-04,-0.6,-0.76
-7.211e-04,-0.7,-0.56
-7.192e-04,-0.68,-0.84
-7.173e-04,-0.74,-0.64
-7.153e-04,-0.76,-0.82
-7.134e-04,-0.74,-0.66
-7.115e-04,-0.7,-0.8
-7.096e-04,-0.74,-0.66
-7.076e-04,-0.72,-0.78
-7.057e-04,-0.68,-0.64
-7.038e-04,-0.76,-0.78
-7.019e-04,-0.6,-0.58
-7.000e-04,-0.68,-0.78
-6.980e-04,-0.68,-0.62
-6.961e-04,-0.72,-0.76
-6.942e-04,-0.7,-0.62
-6.923e-04,-0.7,-0.74
-6.904e-04,-0.6,-0.56
-6.884e-04,-0.66,-0.72
-6.865e-04,-0.64,-0.56
-6.846e-04,-0.6,-0.72
-6.827e-04,-0.64,-0.56
-6.808e-04,-0.64,-0.72
-6.788e-04,-0.64,-0.54
-6.769e-04,-0.58,-0.68
-6.750e-04,-0.66,-0.54
-6.731e-04,-0.56,-0.66
-6.712e-04,-0.58,-0.44
-6.692e-04,-0.48,-0.64
-6.673e-04,-0.52,-0.46
-6.654e-04,-0.56,-0.74
-6.635e-04,-0.66,-0.52
-6.616e-04,-0.66,-0.74
-6.596e-04,-0.64,-0.58
-6.577e-04,-0.72,-0.78
-6.558e-04,-0.68,-0.64
-6.539e-04,-0.74,-0.78
-6.520e-04,-0.58,-0.56
-6.500e-04,-0.66,-0.74
-6.481e-04,-0.64,-0.6
-6.462e-04,-0.68,-0.8
-6.443e-04,-0.68,-0.62
-6.424e-04,-0.76,-0.9
-6.404e-04,-0.8,-0.7
-6.385e-04,-0.8,-0.92
-6.366e-04,-0.86,-0.7
-6.347e-04,-0.7,-0.76
-6.328e-04,-0.7,-0.6
-6.308e-04,-0.6,-0.76
-6.289e-04,-0.72,-0.58
-6.270e-04,-0.66,-0.78
-6.251e-04,-0.74,-0.62
-6.232e-04,-0.64,-0.78
-6.212e-04,-0.72,-0.6
-6.193e-04,-0.72,-0.86
-6.174e-04,-0.8,-0.68
-6.155e-04,-0.76,-0.82
-6.136e-04,-0.7,-0.62
-6.116e-04,-0.7,-0.78
-6.097e-04,-0.66,-0.64
-6.078e-04,-0.76,-0.82
-6.059e-04,-0.7,-0.62
-6.040e-04,-0.72,-0.76
-6.020e-04,-0.62,-0.6
-6.001e-04,-0.68,-0.76
-5.982e-04,-0.66,-0.6
-5.963e-04,-0.68,-0.76
-5.944e-04,-0.68,-0.6
-5.924e-04,-0.68,-0.82
-5.905e-04,-0.72,-0.62
-5.886e-04,-0.74,-0.8
-5.867e-04,-0.7,-0.64
-5.848e-04,-0.7,-0.76
-5.828e-04,-0.68,-0.62
-5.809e-04,-0.64,-0.76
-5.790e-04,-0.72,-0.6
-5.771e-04,-0.66,-0.76
-5.752e-04,-0.74,-0.64
-5.732e-04,-0.66,-0.84
-5.713e-04,-0.76,-0.66
-5.694e-04,-0.72,-0.8
-5.675e-04,-0.7,-0.64
-5.656e-04,-0.72,-0.8
-5.636e-04,-0.7,-0.64
-5.617e-04,-0.74,-0.82
-5.598e-04,-0.72,-0.68
-5.579e-04,-0.78,-0.82
-5.560e-04,-0.68,-0.54
-5.540e-04,-0.6,-0.64
-5.521e-04,-0.5,-0.48
-5.502e-04,-0.62,-0.68
-5.483e-04,-0.54,-0.52
-5.464e-04,-0.62,-0.72
-5.444e-04,-0.58,-0.54
-5.425e-04,-0.68,-0.72
-5.406e-04,-0.62,-0.56
-5.387e-04,-0.66,-0.86
-5.368e-04,-0.78,-0.62
-5.348e-04,-0.76,-0.82
-5.329e-04,-0.76,-0.62
-5.310e-04,-0.64,-0.74
-5.291e-04,-0.7,-0.58
-5.272e-04,-0.58,-0.72
-5.252e-04,-0.66,-0.54
-5.233e-04,-0.66,-0.8
-5.214e-04,-0.74,-0.64
-5.195e-04,-0.72,-0.8
-5.176e-04,-0.74,-0.6
-5.156e-04,-0.66,-0.76
-5.137e-04,-0.68,-0.62
-5.118e-04,-0.68,-0.72
-5.099e-04,-0.6,-0.54
-5.080e-04,-0.66,-0.76
-5.060e-04,-0.62,-0.62
-5.041e-04,-0.72,-0.76
-5.022e-04,-0.64,-0.6
-5.003e-04,-0.68,-0.8
-4.984e-04,-0.66,-0.58
-4.964e-04,-0.76,-0.8
-4.945e-04,-0.74,-0.68
-4.926e-04,-0.72,-0.78
-4.907e-04,-0.66,-0.62
-4.888e-04,-0.68,-0.74
-4.868e-04,-0.68,-0.6
-4.849e-04,-0.66,-0.72
-4.830e-04,-0.64,-0.56
-4.811e-04,-0.62,-0.82
-4.792e-04,-0.78,-0.6
-4.772e-04,-0.66,-0.82
-4.753e-04,-0.74,-0.64
-4.734e-04,-0.72,-0.84
-4.715e-04,-0.7,-0.64
-4.696e-04,-0.72,-0.82
-4.676e-04,-0.74,-0.66
-4.657e-04,-0.72,-0.82
-4.638e-04,-0.72,-0.66
-4.619e-04,-0.76,-0.8
-4.600e-04,-0.66,-0.62
-4.580e-04,-0.72,-0.86
-4.561e-04,-0.7,-0.64
-4.542e-04,-0.82,-0.86
-4.523e-04,-0.74,-0.72
-4.504e-04,-0.8,-0.82
-4.484e-04,-0.7,-0.6
-4.465e-04,-0.66,-0.78
-4.446e-04,-0.66,-0.58
-4.427e-04,-0.72,-0.8
-4.408e-04,-0.72,-0.64
-4.388e-04,-0.7,-0.8
-4.369e-04,-0.72,-0.64
-4.350e-04,-0.7,-0.84
-4.331e-04,-0.8,-0.68
-4.312e-04,-0.68,-0.82
-4.292e-04,-0.76,-0.64
-4.273e-04,-0.64,-0.78
-4.254e-04,-0.74,-0.62
-4.235e-04,-0.66,-0.72
-4.216e-04,-0.66,-0.5
-4.196e-04,-0.54,-0.64
-4.177e-04,-0.54,-0.46
-4.158e-04,-0.6,-0.72
-4.139e-04,-0.66,-0.58
-4.120e-04,-0.68,-0.76
-4.100e-04,-0.66,-0.58
-4.081e-04,-0.64,-0.86
-4.062e-04,-0.7,-0.58
-4.043e-04,-0.84,-0.86
-4.024e-04,-0.62,-0.58
-4.004e-04,-0.66,-0.74
-3.985e-04,-0.64,-0.58
-3.966e-04,-0.68,-0.82
-3.947e-04,-0.74,-0.62
-3.927e-04,-0.64,-0.84
-3.908e-04,-0.72,-0.62
-3.889e-04,-0.76,-0.82
-3.870e-04,-0.74,-0.66
-3.851e-04,-0.66,-0.74
-3.831e-04,-0.7,-0.6
-3.812e-04,-0.62,-0.72
-3.793e-04,-0.66,-0.56
-3.774e-04,-0.6,-0.78
-3.755e-04,-0.72,-0.6
-3.735e-04,-0.68,-0.8
-3.716e-04,-0.7,-0.64
-3.697e-04,-0.74,-0.8
-3.678e-04,-0.7,-0.64
-3.659e-04,-0.74,-0.8
-3.639e-04,-0.66,-0.54
-3.620e-04,-0.62,-0.64
-3.601e-04,-0.52,-0.48
-3.582e-04,-0.58,-0.6
-3.563e-04,-0.46,-0.44
-3.543e-04,-0.52,-0.72
-3.524e-04,-0.56,-0.42
-3.505e-04,-0.7,-0.72
-3.486e-04,-0.62,-0.58
-3.467e-04,-0.72,-0.74
-3.447e-04,-0.6,-0.48
-3.428e-04,-0.56,-0.7
-3.409e-04,-0.64,-0.5
-3.390e-04,-0.6,-0.74
-3.371e-04,-0.64,-0.56
-3.351e-04,-0.64,-0.74
-3.332e-04,-0.64,-0.54
-3.313e-04,-0.56,-0.76
-3.294e-04,-0.68,-0.54
-3.275e-04,-0.66,-0.76
-3.255e-04,-0.66,-0.58
-3.236e-04,-0.64,-0.78
-3.217e-04,-0.72,-0.6
-3.198e-04,-0.72,-0.82
-3.179e-04,-0.72,-0.66
-3.159e-04,-0.76,-0.82
-3.140e-04,-0.66,-0.54
-3.121e-04,-0.6,-0.64
-3.102e-04,-0.54,-0.5
-3.083e-04,-0.64,-0.72
-3.063e-04,-0.6,-0.52
-3.044e-04,-0.6,-0.72
-3.025e-04,-0.58,-0.54
-3.006e-04,-0.7,-0.76
-2.987e-04,-0.68,-0.62
-2.967e-04,-0.66,-0.74
-2.948e-04,-0.66,-0.54
-2.929e-04,-0.56,-0.68
-2.910e-04,-0.58,-0.48
-2.891e-04,-0.6,-0.78
-2.871e-04,-0.76,-0.58
-2.852e-04,-0.66,-0.76
-2.833e-04,-0.68,-0.6
-2.814e-04,-0.66,-0.78
-2.795e-04,-0.74,-0.58
-2.775e-04,-0.6,-0.7
-2.756e-04,-0.64,-0.52
-2.737e-04,-0.62,-0.78
-2.718e-04,-0.7,-0.58
-2.699e-04,-0.72,-0.78
-2.679e-04,-0.64,-0.58
-2.660e-04,-0.64,-0.72
-2.641e-04,-0.64,-0.58
-2.622e-04,-0.72,-0.74
-2.603e-04,-0.62,-0.6
-2.583e-04,-0.72,-0.78
-2.564e-04,-0.68,-0.64
-2.545e-04,-0.78,-0.84
-2.526e-04,-0.76,-0.66
-2.507e-04,-0.74,-0.82
-2.487e-04,-0.72,-0.66
-2.468e-04,-0.72,-0.82
-2.449e-04,-0.72,-0.64
-2.430e-04,-0.74,-0.86
-2.411e-04,-0.76,-0.68
-2.391e-04,-0.78,-0.86
-2.372e-04,-0.76,-0.66
-2.353e-04,-0.68,-0.8
-2.334e-04,-0.78,-0.66
-2.315e-04,-0.7,-0.78
-2.295e-04,-0.72,-0.56
-2.276e-04,-0.56,-0.7
-2.257e-04,-0.64,-0.54
-2.238e-04,-0.62,-0.76
-2.219e-04,-0.66,-0.58
-2.199e-04,-0.7,-0.86
-2.180e-04,-0.74,-0.66
-2.161e-04,-0.8,-0.84
-2.142e-04,-0.62,-0.58
-2.123e-04,-0.66,-0.7
-2.103e-04,-0.58,-0.54
-2.084e-04,-0.66,-0.74
-2.065e-04,-0.6,-0.58
-2.046e-04,-0.7,-0.84
-2.027e-04,-0.72,-0.66
-2.007e-04,-0.8,-0.84
-1.988e-04,-0.74,-0.7
-1.969e-04,-0.74,-0.82
-1.950e-04,-0.66,-0.56
-1.931e-04,-0.56,-0.64
-1.911e-04,-0.56,-0.48
-1.892e-04,-0.54,-0.66
-1.873e-04,-0.58,-0.48
-1.854e-04,-0.56,-0.72
-1.835e-04,-0.64,-0.54
-1.815e-04,-0.66,-0.76
-1.796e-04,-0.7,-0.56
-1.777e-04,-0.6,-0.74
-1.758e-04,-0.72,-0.58
-1.739e-04,-0.62,-0.82
-1.719e-04,-0.74,-0.58
-1.700e-04,-0.72,-0.78
-1.681e-04,-0.66,-0.6
-1.662e-04,-0.72,-0.86
-1.643e-04,-0.74,-0.66
-1.623e-04,-0.82,-0.84
-1.604e-04,-0.72,-0.62
-1.585e-04,-0.72,-0.8
-1.566e-04,-0.66,-0.62
-1.547e-04,-0.72,-0.76
-1.527e-04,-0.64,-0.58
-1.508e-04,-0.66,-0.74
-1.489e-04,-0.62,-0.58
-1.470e-04,-0.66,-0.78
-1.451e-04,-0.72,-0.6
-1.431e-04,-0.64,-0.84
-1.412e-04,-0.74,-0.6
-1.393e-04,-0.72,-0.78
-1.374e-04,-0.72,-0.64
-1.355e-04,-0.64,-0.74
-1.335e-04,-0.72,-0.56
-1.316e-04,-0.58,-0.7
-1.297e-04,-0.6,-0.52
-1.278e-04,-0.6,-0.7
-1.259e-04,-0.64,-0.58
-1.239e-04,-0.62,-0.8
-1.220e-04,-0.68,-0.6
-1.201e-04,-0.76,-0.8
-1.182e-04,-0.66,-0.58
-1.163e-04,-0.68,-0.76
-1.143e-04,-0.64,-0.6
-1.124e-04,-0.72,-0.82
-1.105e-04,-0.74,-0.64
-1.086e-04,-0.78,-0.82
-1.067e-04,-0.72,-0.7
-1.047e-04,-0.78,-0.82
-1.028e-04,-0.72,-0.58
-1.009e-04,-0.64,-0.66
-9.897e-05,-0.52,-0.5
-9.705e-05,-0.58,-0.72
-9.513e-05,-0.66,-0.52
-9.321e-05,-0.66,-0.84
-9.129e-05,-0.72,-0.62
-8.937e-05,-0.76,-0.86
-8.745e-05,-0.76,-0.6
-8.553e-05,-0.62,-0.78
-8.361e-05,-0.72,-0.6
-8.169e-05,-0.7,-0.8
-7.977e-05,-0.76,-0.66
-7.785e-05,-0.72,-0.92
-7.593e-05,-0.92,-0.68
-7.401e-05,-0.8,-0.86
-7.209e-05,-0.8,-0.64
-7.017e-05,-0.68,-0.78
-6.825e-05,-0.66,-0.6
-6.633e-05,-0.72,-0.76
-6.441e-05,-0.6,-0.48
-6.249e-05,-0.58,-0.72
-6.057e-05,-0.58,-0.52
-5.865e-05,-0.7,-0.76
-5.673e-05,-0.64,-0.58
-5.481e-05,-0.64,-0.8
-5.289e-05,-0.62,-0.56
-5.097e-05,-0.74,-0.8
-4.905e-05,-0.62,-0.56
-4.713e-05,-0.58,-0.66
-4.521e-05,-0.56,-0.48
-4.329e-05,-0.58,-0.74
-4.137e-05,-0.68,-0.54
-3.945e-05,-0.62,-0.74
-3.753e-05,-0.66,-0.56
-3.561e-05,-0.62,-0.82
-3.369e-05,-0.74,-0.6
-3.177e-05,-0.72,-0.84
-2.985e-05,-0.72,-0.64
-2.793e-05,-0.64,-0.74
-2.601e-05,-0.62,-0.48
-2.409e-05,-0.54,-0.66
-2.217e-05,-0.58,-0.48
-2.025e-05,-0.62,-0.72
-1.833e-05,-0.58,-0.54
-1.641e-05,-0.72,-0.76
-1.449e-05,-0.66,-0.6
-1.257e-05,-0.7,-0.74
-1.065e-05,-0.6,-0.56
-8.725e-06,-0.64,-0.8
-6.805e-06,-0.66,-0.58
-4.885e-06,-0.78,-0.8
-2.965e-06,-0.7,-0.64
-1.045e-06,-0.72,-0.74
8.756e-07,-0.6,-0.54
2.796e-06,-0.62,-0.9
4.716e-06,-0.7,-0.58
6.636e-06,-0.9,-1.42
8.556e-06,-0.9,0.8
1.048e-05,-0.04,-2.38
1.240e-05,-2.38,0.24
1.432e-05,-2.38,-2.38
1.624e-05,-2.38,-2.38
1.816e-05,-2.38,-2.38
2.008e-05,-2.38,-2.38
2.200e-05,-2.38,-2.38
2.392e-05,-2.38,-2.38
2.584e-05,-2.38,-2.38
2.776e-05,-2.38,-2.38
2.968e-05,-2.38,-2.38
3.160e-05,-2.38,-2.38
3.352e-05,-2.38,-2.38
3.544e-05,-2.38,-2.38
3.736e-05,-2.38,-2.38
3.928e-05,-2.38,-2.38
4.120e-05,-2.38,-2.38
4.312e-05,-2.38,-2.38
4.504e-05,-2.38,-2.38
4.696e-05,-2.38,-2.38
4.888e-05,-2.38,-2.38
5.080e-05,-2.38,-2.38
5.272e-05,-2.38,-2.38
5.464e-05,-2.38,-2.38
5.656e-05,-2.38,-2.38
5.848e-05,-2.38,-2.14
6.040e-05,-2.1,-2.16
6.232e-05,-1.48,-0.96
6.424e-05,-0.94,-0.98
6.616e-05,-0.82,-0.62
6.808e-05,-0.62,-0.7
7.000e-05,-0.6,-0.48
7.192e-05,-0.52,-0.68
7.384e-05,-0.6,-0.48
7.576e-05,-0.62,-0.68
7.768e-05,-0.58,-0.54
7.960e-05,-0.64,-0.78
8.152e-05,-0.64,-0.56
8.344e-05,-0.76,-0.78
8.536e-05,-0.64,-0.5
8.728e-05,-0.58,-0.66
8.920e-05,-0.52,-0.48
9.112e-05,-0.66,-0.74
9.304e-05,-0.64,-0.58
9.496e-05,-0.68,-0.72
9.688e-05,-0.64,-0.58
9.880e-05,-0.68,-0.72
1.007e-04,-0.62,-0.58
1.026e-04,-0.62,-0.78
1.046e-04,-0.72,-0.58
1.065e-04,-0.68,-0.82
1.084e-04,-0.78,-0.62
1.103e-04,-0.68,-0.78
1.122e-04,-0.76,-0.6
1.142e-04,-0.58,-0.68
1.161e-04,-0.56,-0.48
1.180e-04,-0.58,-0.66
1.199e-04,-0.58,-0.5
1.218e-04,-0.58,-0.72
1.238e-04,-0.64,-0.54
1.257e-04,-0.58,-0.7
1.276e-04,-0.64,-0.52
1.295e-04,-0.58,-0.66
1.314e-04,-0.54,-0.5
1.334e-04,-0.6,-0.7
1.353e-04,-0.54,-0.52
1.372e-04,-0.68,-0.82
1.391e-04,-0.7,-0.58
1.410e-04,-0.7,-0.76
1.430e-04,-0.66,-0.62
1.449e-04,-0.72,-0.78
1.468e-04,-0.64,-0.6
1.487e-04,-0.74,-0.8
1.506e-04,-0.74,-0.64
1.526e-04,-0.66,-0.72
1.545e-04,-0.62,-0.54
1.564e-04,-0.6,-0.7
1.583e-04,-0.7,-0.58
1.602e-04,-0.56,-0.66
1.622e-04,-0.62,-0.48
1.641e-04,-0.56,-0.68
1.660e-04,-0.64,-0.42
1.679e-04,-0.44,-0.7
1.698e-04,-0.46,-0.36
1.718e-04,-0.66,-0.8
1.737e-04,-0.76,-0.62
1.756e-04,-0.68,-0.7
1.775e-04,-0.56,-0.5
1.794e-04,-0.6,-0.72
1.814e-04,-0.58,-0.52
1.833e-04,-0.72,-0.8
1.852e-04,-0.7,-0.66
1.871e-04,-0.76,-0.78
1.890e-04,-0.68,-0.58
1.910e-04,-0.68,-0.76
1.929e-04,-0.68,-0.6
1.948e-04,-0.72,-0.74
1.967e-04,-0.66,-0.62
1.986e-04,-0.68,-0.82
2.006e-04,-0.66,-0.56
2.025e-04,-0.74,-0.84
2.044e-04,-0.78,-0.7
2.063e-04,-0.76,-0.92
2.082e-04,-0.92,-0.76
2.102e-04,-0.78,-0.88
2.121e-04,-0.76,-0.7
2.140e-04,-0.76,-0.86
2.159e-04,-0.76,-0.62
2.178e-04,-0.64,-0.74
2.198e-04,-0.68,-0.6
2.217e-04,-0.62,-0.68
2.236e-04,-0.54,-0.48
2.255e-04,-0.56,-0.7
2.275e-04,-0.58,-0.5
2.294e-04,-0.66,-0.74
2.313e-04,-0.64,-0.6
2.332e-04,-0.7,-0.78
2.351e-04,-0.66,-0.62
2.371e-04,-0.78,-0.82
2.390e-04,-0.7,-0.64
2.409e-04,-0.72,-0.76
2.428e-04,-0.6,-0.54
2.447e-04,-0.6,-0.7
2.467e-04,-0.64,-0.56
2.486e-04,-0.62,-0.84
2.505e-04,-0.72,-0.58
2.524e-04,-0.72,-0.82
2.543e-04,-0.76,-0.68
2.563e-04,-0.68,-0.8
2.582e-04,-0.74,-0.56
2.601e-04,-0.56,-0.76
2.620e-04,-0.7,-0.54
2.639e-04,-0.66,-0.76
2.659e-04,-0.66,-0.56
2.678e-04,-0.6,-0.68
2.697e-04,-0.62,-0.52
2.716e-04,-0.58,-0.7
2.735e-04,-0.66,-0.52
2.755e-04,-0.62,-0.68
2.774e-04,-0.56,-0.52
2.793e-04,-0.64,-0.7
2.812e-04,-0.6,-0.54
2.831e-04,-0.64,-0.74
2.851e-04,-0.62,-0.58
2.870e-04,-0.72,-0.76
2.889e-04,-0.62,-0.6
2.908e-04,-0.68,-0.76
2.927e-04,-0.64,-0.6
2.947e-04,-0.68,-0.74
2.966e-04,-0.62,-0.58
2.985e-04,-0.68,-0.78
3.004e-04,-0.74,-0.62
3.023e-04,-0.6,-0.68
3.043e-04,-0.62,-0.54
3.062e-04,-0.58,-0.76
3.081e-04,-0.66,-0.56
3.100e-04,-0.66,-0.78
3.119e-04,-0.76,-0.54
3.139e-04,-0.52,-0.68
3.158e-04,-0.6,-0.5
3.177e-04,-0.58,-0.76
3.196e-04,-0.68,-0.54
3.215e-04,-0.66,-0.72
3.235e-04,-0.6,-0.56
3.254e-04,-0.66,-0.72
3.273e-04,-0.6,-0.58
3.292e-04,-0.7,-0.74
3.311e-04,-0.62,-0.6
3.331e-04,-0.66,-0.74
3.350e-04,-0.62,-0.58
3.369e-04,-0.72,-0.76
3.388e-04,-0.62,-0.58
3.407e-04,-0.7,-0.76
3.427e-04,-0.68,-0.64
3.446e-04,-0.68,-0.76
3.465e-04,-0.66,-0.6
3.484e-04,-0.68,-0.78
3.503e-04,-0.68,-0.62
3.523e-04,-0.72,-0.8
3.542e-04,-0.74,-0.64
3.561e-04,-0.66,-0.8
3.580e-04,-0.76,-0.64
3.599e-04,-0.66,-0.72
3.619e-04,-0.64,-0.56
3.638e-04,-0.66,-0.74
3.657e-04,-0.72,-0.62
3.676e-04,-0.66,-0.74
3.695e-04,-0.66,-0.56
3.715e-04,-0.64,-0.74
3.734e-04,-0.66,-0.6
3.753e-04,-0.68,-0.72
3.772e-04,-0.64,-0.6
3.791e-04,-0.68,-0.82
3.811e-04,-0.66,-0.62
3.830e-04,-0.8,-0.82
3.849e-04,-0.72,-0.68
3.868e-04,-0.74,-0.78
3.887e-04,-0.6,-0.58
3.907e-04,-0.7,-0.78
3.926e-04,-0.66,-0.62
3.945e-04,-0.64,-0.74
3.964e-04,-0.64,-0.58
3.983e-04,-0.66,-0.74
4.003e-04,-0.68,-0.58
4.022e-04,-0.62,-0.76
4.041e-04,-0.74,-0.6
4.060e-04,-0.62,-0.72
4.079e-04,-0.66,-0.56
4.099e-04,-0.62,-0.74
4.118e-04,-0.66,-0.6
4.137e-04,-0.6,-0.72
4.156e-04,-0.66,-0.58
4.175e-04,-0.66,-0.86
4.195e-04,-0.72,-0.64
4.214e-04,-0.8,-0.86
4.233e-04,-0.76,-0.68
4.252e-04,-0.76,-0.8
4.271e-04,-0.64,-0.58
4.291e-04,-0.66,-0.68
4.310e-04,-0.54,-0.46
4.329e-04,-0.56,-0.66
4.348e-04,-0.58,-0.5
4.367e-04,-0.62,-0.68
4.387e-04,-0.58,-0.5
4.406e-04,-0.66,-0.76
4.425e-04,-0.68,-0.58
4.444e-04,-0.68,-0.74
4.463e-04,-0.6,-0.54
4.483e-04,-0.58,-0.7
4.502e-04,-0.62,-0.52
4.521e-04,-0.54,-0.66
4.540e-04,-0.58,-0.48
4.559e-04,-0.48,-0.62
4.579e-04,-0.58,-0.46
4.598e-04,-0.5,-0.64
4.617e-04,-0.56,-0.44
4.636e-04,-0.58,-0.74
4.655e-04,-0.62,-0.54
4.675e-04,-0.7,-0.82
4.694e-04,-0.76,-0.66
4.713e-04,-0.78,-0.82
4.732e-04,-0.68,-0.6
4.751e-04,-0.66,-0.72
4.771e-04,-0.52,-0.48
4.790e-04,-0.64,-0.72
4.809e-04,-0.56,-0.54
4.828e-04,-0.72,-0.78
4.847e-04,-0.64,-0.64
4.867e-04,-0.7,-0.76
4.886e-04,-0.66,-0.6
4.905e-04,-0.64,-0.74
4.924e-04,-0.66,-0.6
4.943e-04,-0.68,-0.82
4.963e-04,-0.76,-0.66
4.982e-04,-0.7,-0.84
5.001e-04,-0.8,-0.7
5.020e-04,-0.72,-0.8
5.039e-04,-0.72,-0.56
5.059e-04,-0.56,-0.66
5.078e-04,-0.56,-0.48
5.097e-04,-0.6,-0.96
5.116e-04,-0.86,-0.58
5.135e-04,-0.9,-0.96
5.155e-04,-0.86,-0.8
5.174e-04,-0.84,-0.88
5.193e-04,-0.74,-0.68
5.212e-04,-0.76,-0.82
5.231e-04,-0.74,-0.66
5.251e-04,-0.72,-0.76
5.270e-04,-0.66,-0.58
5.289e-04,-0.66,-0.72
5.308e-04,-0.56,-0.54
5.327e-04,-0.7,-0.72
5.347e-04,-0.6,-0.54
5.366e-04,-0.7,-0.76
5.385e-04,-0.68,-0.6
5.404e-04,-0.68,-0.76
5.424e-04,-0.7,-0.56
5.443e-04,-0.58,-0.64
5.462e-04,-0.56,-0.48
5.481e-04,-0.6,-0.66
5.500e-04,-0.6,-0.52
5.520e-04,-0.56,-0.76
5.539e-04,-0.7,-0.54
5.558e-04,-0.66,-0.78
5.577e-04,-0.7,-0.62
5.596e-04,-0.68,-0.78
5.616e-04,-0.72,-0.64
5.635e-04,-0.68,-0.74
5.654e-04,-0.64,-0.56
5.673e-04,-0.66,-0.74
5.692e-04,-0.64,-0.58
5.712e-04,-0.66,-0.72
5.731e-04,-0.6,-0.52
5.750e-04,-0.58,-0.76
5.769e-04,-0.64,-0.52
5.788e-04,-0.74,-0.78
5.808e-04,-0.66,-0.64
5.827e-04,-0.72,-0.76
5.846e-04,-0.64,-0.6
5.865e-04,-0.72,-0.78
5.884e-04,-0.68,-0.62
5.904e-04,-0.66,-0.72
5.923e-04,-0.6,-0.48
5.942e-04,-0.5,-0.66
5.961e-04,-0.58,-0.44
5.980e-04,-0.58,-0.72
6.000e-04,-0.7,-0.56
6.019e-04,-0.6,-0.68
6.038e-04,-0.62,-0.54
6.057e-04,-0.58,-0.7
6.076e-04,-0.64,-0.52
6.096e-04,-0.6,-0.72
6.115e-04,-0.66,-0.56
6.134e-04,-0.66,-0.72
6.153e-04,-0.68,-0.56
6.172e-04,-0.62,-0.7
6.192e-04,-0.6,-0.52
6.211e-04,-0.58,-0.68
6.230e-04,-0.6,-0.52
6.249e-04,-0.6,-0.7
6.268e-04,-0.54,-0.52
6.288e-04,-0.66,-0.7
6.307e-04,-0.56,-0.52
6.326e-04,-0.64,-0.7
6.345e-04,-0.6,-0.52
6.364e-04,-0.58,-0.64
6.384e-04,-0.58,-0.48
6.403e-04,-0.56,-0.7
6.422e-04,-0.56,-0.5
6.441e-04,-0.64,-0.74
6.460e-04,-0.68,-0.58
6.480e-04,-0.62,-0.76
6.499e-04,-0.66,-0.58
6.518e-04,-0.64,-0.8
6.537e-04,-0.72,-0.6
6.556e-04,-0.7,-0.88
6.576e-04,-0.84,-0.66
6.595e-04,-0.66,-0.76
6.614e-04,-0.68,-0.62
6.633e-04,-0.7,-0.78
6.652e-04,-0.64,-0.6
6.672e-04,-0.7,-0.74
6.691e-04,-0.62,-0.56
6.710e-04,-0.64,-0.74
6.729e-04,-0.62,-0.58
6.748e-04,-0.68,-0.72
6.768e-04,-0.6,-0.56
6.787e-04,-0.64,-0.7
6.806e-04,-0.6,-0.56
6.825e-04,-0.68,-0.74
6.844e-04,-0.64,-0.6
6.864e-04,-0.7,-0.76
6.883e-04,-0.68,-0.6
6.902e-04,-0.66,-0.7
6.921e-04,-0.62,-0.54
6.940e-04,-0.6,-0.78
6.960e-04,-0.72,-0.6
6.979e-04,-0.66,-0.78
6.998e-04,-0.74,-0.6
7.017e-04,-0.68,-0.76
7.036e-04,-0.7,-0.6
7.056e-04,-0.64,-0.7
7.075e-04,-0.6,-0.48
7.094e-04,-0.6,-0.72
7.113e-04,-0.68,-0.56
7.132e-04,-0.64,-0.74
7.152e-04,-0.66,-0.58
7.171e-04,-0.64,-0.8
7.190e-04,-0.72,-0.6
7.209e-04,-0.72,-0.76
7.228e-04,-0.7,-0.56
7.248e-04,-0.66,-0.78
7.267e-04,-0.68,-0.58
7.286e-04,-0.74,-0.8
7.305e-04,-0.68,-0.64
7.324e-04,-0.76,-0.8
7.344e-04,-0.68,-0.64
7.363e-04,-0.7,-0.76
7.382e-04,-0.66,-0.6
7.401e-04,-0.66,-0.76
7.420e-04,-0.64,-0.6
7.440e-04,-0.68,-0.78
7.459e-04,-0.74,-0.6
7.478e-04,-0.62,-0.68
7.497e-04,-0.62,-0.5
7.516e-04,-0.52,-0.68
7.536e-04,-0.62,-0.5
7.555e-04,-0.54,-0.66
7.574e-04,-0.6,-0.52
7.593e-04,-0.52,-0.72
7.612e-04,-0.64,-0.5
7.632e-04,-0.6,-0.74
7.651e-04,-0.62,-0.54
7.670e-04,-0.7,-0.74
7.689e-04,-0.52,-0.48
7.708e-04,-0.6,-0.64
7.728e-04,-0.56,-0.5
7.747e-04,-0.62,-0.76
7.766e-04,-0.6,-0.52
7.785e-04,-0.72,-0.8
7.804e-04,-0.7,-0.66
7.824e-04,-0.72,-0.78
7.843e-04,-0.66,-0.62
7.862e-04,-0.76,-0.78
7.881e-04,-0.64,-0.6
7.900e-04,-0.66,-0.76
7.920e-04,-0.72,-0.54
7.939e-04,-0.56,-0.66
7.958e-04,-0.62,-0.52
7.977e-04,-0.56,-0.66
7.996e-04,-0.62,-0.54
8.016e-04,-0.6,-0.68
8.035e-04,-0.62,-0.52
8.054e-04,-0.58,-0.7
8.073e-04,-0.68,-0.54
8.092e-04,-0.58,-0.68
8.112e-04,-0.62,-0.5
8.131e-04,-0.56,-0.62
8.150e-04,-0.54,-0.48
8.169e-04,-0.6,-0.74
8.188e-04,-0.66,-0.54
8.208e-04,-0.66,-0.72
8.227e-04,-0.62,-0.6
8.246e-04,-0.72,-0.74
8.265e-04,-0.6,-0.58
8.284e-04,-0.72,-0.82
8.304e-04,-0.7,-0.62
8.323e-04,-0.7,-0.76
8.342e-04,-0.64,-0.52
8.361e-04,-0.56,-0.64
8.380e-04,-0.58,-0.5
8.400e-04,-0.58,-0.78
8.419e-04,-0.64,-0.54
8.438e-04,-0.72,-0.8
8.457e-04,-0.7,-0.6
8.476e-04,-0.62,-0.72
8.496e-04,-0.64,-0.56
8.515e-04,-0.6,-0.7
8.534e-04,-0.58,-0.48
8.553e-04,-0.6,-0.78
8.573e-04,-0.74,-0.58
8.592e-04,-0.68,-0.78
8.611e-04,-0.68,-0.62
8.630e-04,-0.7,-0.76
8.649e-04,-0.64,-0.56
8.669e-04,-0.62,-0.64
8.688e-04,-0.52,-0.5
8.707e-04,-0.62,-0.64
8.726e-04,-0.48,-0.46
8.745e-04,-0.62,-0.66
8.765e-04,-0.48,-0.42
8.784e-04,-0.54,-0.68
8.803e-04,-0.6,-0.46
8.822e-04,-0.64,-0.68
8.841e-04,-0.52,-0.5
8.861e-04,-0.62,-0.7
8.880e-04,-0.62,-0.54
8.899e-04,-0.58,-0.7
8.918e-04,-0.58,-0.5
8.937e-04,-0.62,-0.7
8.957e-04,-0.62,-0.54
8.976e-04,-0.56,-0.66
8.995e-04,-0.56,-0.46
9.014e-04,-0.56,-0.76
9.033e-04,-0.68,-0.54
9.053e-04,-0.68,-0.76
9.072e-04,-0.68,-0.58
9.091e-04,-0.64,-0.76
9.110e-04,-0.66,-0.6
9.129e-04,-0.68,-0.78
9.149e-04,-0.7,-0.62
9.168e-04,-0.72,-0.78
9.187e-04,-0.62,-0.58
9.206e-04,-0.74,-0.8
9.225e-04,-0.66,-0.64
9.245e-04,-0.78,-0.8
9.264e-04,-0.6,-0.56
9.283e-04,-0.64,-0.68
9.302e-04,-0.52,-0.48
9.321e-04,-0.54,-0.66
9.341e-04,-0.58,-0.5
9.360e-04,-0.6,-0.7
9.379e-04,-0.62,-0.54
9.398e-04,-0.58,-0.66
9.417e-04,-0.6,-0.5
9.437e-04,-0.54,-0.66
9.456e-04,-0.64,-0.52
9.475e-04,-0.54,-0.76
9.494e-04,-0.68,-0.52
9.513e-04,-0.7,-0.8
9.533e-04,-0.76,-0.62
9.552e-04,-0.66,-0.74
9.571e-04,-0.64,-0.52
9.590e-04,-0.56,-0.7
9.609e-04,-0.6,-0.5
9.629e-04,-0.66,-0.76
9.648e-04,-0.64,-0.6
9.667e-04,-0.74,-0.76
9.686e-04,-0.68,-0.6
9.705e-04,-0.64,-0.72
9.725e-04,-0.6,-0.58
9.744e-04,-0.7,-0.72
9.763e-04,-0.6,-0.5
9.782e-04,-0.6,-0.62
9.801e-04,-0.48,-0.46
9.821e-04,-0.56,-0.66
9.840e-04,-0.6,-0.48
9.859e-04,-0.6,-0.74
9.878e-04,-0.62,-0.54
9.897e-04,-0.68,-0.88
9.917e-04,-0.78,-0.64
9.936e-04,-0.74,-0.8
9.955e-04,-0.72,-0.54
9.974e-04,-0.52,-0.64
9.993e-04,-0.58,-0.46
1.001e-03,-0.5,-0.64
1.003e-03,-0.56,-0.46
1.005e-03,-0.52,-0.68
1.007e-03,-0.6,-0.48
1.009e-03,-0.58,-0.7
1.011e-03,-0.64,-0.54
1.013e-03,-0.6,-0.76
1.015e-03,-0.64,-0.54
1.017e-03,-0.7,-0.74
1.019e-03,-0.58,-0.54
1.020e-03,-0.62,-0.7
1.022e-03,-0.62,-0.56
1.024e-03,-0.6,-0.7
1.026e-03,-0.58,-0.52
1.028e-03,-0.62,-0.74
1.030e-03,-0.64,-0.54
1.032e-03,-0.62,-0.72
1.034e-03,-0.62,-0.54
1.036e-03,-0.58,-0.64
1.038e-03,-0.52,-0.46
1.040e-03,-0.58,-0.74
1.042e-03,-0.7,-0.56
1.044e-03,-0.62,-0.74
1.045e-03,-0.7,-0.58
1.047e-03,-0.62,-0.7
1.049e-03,-0.64,-0.56
1.051e-03,-0.6,-0.7
1.053e-03,-0.68,-0.56
1.055e-03,-0.62,-0.8
1.057e-03,-0.72,-0.58
1.059e-03,-0.74,-0.84
1.061e-03,-0.76,-0.7
1.063e-03,-0.8,-0.9
1.065e-03,-0.82,-0.74
1.067e-03,-0.84,-0.88
1.068e-03,-0.72,-0.66
1.070e-03,-0.76,-0.78
1.072e-03,-0.62,-0.58
1.074e-03,-0.7,-0.88
1.076e-03,-0.72,-0.6
1.078e-03,-0.86,-0.88
1.080e-03,-0.74,-0.66
1.082e-03,-0.7,-0.76
1.084e-03,-0.66,-0.54
1.086e-03,-0.58,-0.68
1.088e-03,-0.6,-0.52
1.090e-03,-0.58,-0.72
1.092e-03,-0.64,-0.54
1.093e-03,-0.62,-0.72
1.095e-03,-0.66,-0.56
1.097e-03,-0.58,-0.72
1.099e-03,-0.68,-0.56
1.101e-03,-0.6,-0.7
1.103e-03,-0.6,-0.52
1.105e-03,-0.6,-0.74
1.107e-03,-0.64,-0.54
1.109e-03,-0.6,-0.64
1.111e-03,-0.54,-0.5
1.113e-03,-0.58,-0.62
1.115e-03,-0.48,-0.46
1.116e-03,-0.62,-0.7
1.118e-03,-0.6,-0.5
1.120e-03,-0.56,-0.68
1.122e-03,-0.5,-0.44
1.124e-03,-0.64,-0.68
1.126e-03,-0.58,-0.52
1.128e-03,-0.6,-0.66
1.130e-03,-0.58,-0.5
1.132e-03,-0.58,-0.66
1.134e-03,-0.6,-0.52
1.136e-03,-0.58,-0.68
1.138e-03,-0.56,-0.48
1.140e-03,-0.54,-0.64
1.141e-03,-0.58,-0.48
1.143e-03,-0.54,-0.66
1.145e-03,-0.62,-0.52
1.147e-03,-0.54,-0.68
1.149e-03,-0.64,-0.52
1.151e-03,-0.58,-0.76
1.153e-03,-0.68,-0.56
1.155e-03,-0.7,-0.76
1.157e-03,-0.66,-0.52
1.159e-03,-0.56,-0.7
1.161e-03,-0.58,-0.5
1.163e-03,-0.64,-0.68
1.164e-03,-0.56,-0.5
1.166e-03,-0.6,-0.68
1.168e-03,-0.52,-0.5
1.170e-03,-0.68,-0.7
1.172e-03,-0.58,-0.56
1.174e-03,-0.68,-0.72
1.176e-03,-0.6,-0.56
1.178e-03,-0.62,-0.68
1.180e-03,-0.58,-0.54
1.182e-03,-0.6,-0.72
1.184e-03,-0.62,-0.54
1.186e-03,-0.64,-0.78
1.188e-03,-0.7,-0.58
1.189e-03,-0.68,-0.78
1.191e-03,-0.72,-0.64
1.193e-03,-0.68,-0.76
1.195e-03,-0.72,-0.58
1.197e-03,-0.6,-0.74
1.199e-03,-0.68,-0.58
1.201e-03,-0.6,-0.7
1.203e-03,-0.6,-0.54
1.205e-03,-0.62,-0.7
1.207e-03,-0.62,-0.52
1.209e-03,-0.58,-0.7
1.211e-03,-0.62,-0.56
1.212e-03,-0.68,-0.74
1.214e-03,-0.64,-0.58
1.216e-03,-0.7,-0.82
1.218e-03,-0.6,-0.58
1.220e-03,-0.8,-0.84
1.222e-03,-0.74,-0.68
1.224e-03,-0.78,-0.8
1.226e-03,-0.64,-0.6
1.228e-03,-0.7,-0.78
1.230e-03,-0.7,-0.62
1.232e-03,-0.68,-0.76
1.234e-03,-0.72,-0.6
1.236e-03,-0.62,-0.78
1.237e-03,-0.74,-0.6
1.239e-03,-0.6,-0.74
1.241e-03,-0.66,-0.54
1.243e-03,-0.62,-0.72
1.245e-03,-0.64,-0.54
1.247e-03,-0.6,-0.82
1.249e-03,-0.8,-0.56
1.251e-03,-0.7,-0.78
1.253e-03,-0.64,-0.58
1.255e-03,-0.62,-0.7
1.257e-03,-0.64,-0.56
1.259e-03,-0.62,-0.68
1.260e-03,-0.52,-0.44
1.262e-03,-0.54,-0.72
1.264e-03,-0.58,-0.5
1.266e-03,-0.7,-0.72
1.268e-03,-0.6,-0.56
1.270e-03,-0.64,-0.76
1.272e-03,-0.58,-0.54
1.274e-03,-0.72,-0.8
1.276e-03,-0.68,-0.62
1.278e-03,-0.68,-0.74
1.280e-03,-0.62,-0.54
1.282e-03,-0.56,-0.62
1.284e-03,-0.56,-0.48
1.285e-03,-0.5,-0.72
1.287e-03,-0.68,-0.5
1.289e-03,-0.6,-0.74
1.291e-03,-0.7,-0.54
1.293e-03,-0.56,-0.7
1.295e-03,-0.66,-0.52
1.297e-03,-0.54,-0.76
1.299e-03,-0.7,-0.54
1.301e-03,-0.66,-0.76
1.303e-03,-0.68,-0.6
1.305e-03,-0.72,-0.78
1.307e-03,-0.68,-0.54
1.308e-03,-0.6,-0.74
1.310e-03,-0.62,-0.52
1.312e-03,-0.7,-0.7
1.314e-03,-0.6,-0.54
1.316e-03,-0.62,-0.66
1.318e-03,-0.54,-0.5
1.320e-03,-0.62,-0.66
1.322e-03,-0.54,-0.46
1.324e-03,-0.56,-0.72
1.326e-03,-0.58,-0.46
1.328e-03,-0.7,-0.76
1.330e-03,-0.68,-0.6
1.332e-03,-0.7,-0.74
1.333e-03,-0.62,-0.54
1.335e-03,-0.58,-0.64
1.337e-03,-0.58,-0.5
1.339e-03,-0.56,-0.66
1.341e-03,-0.6,-0.5
1.343e-03,-0.58,-0.76
1.345e-03,-0.66,-0.56
1.347e-03,-0.7,-0.78
1.349e-03,-0.72,-0.56
1.351e-03,-0.58,-0.72
1.353e-03,-0.62,-0.54
1.355e-03,-0.6,-0.68
1.356e-03,-0.6,-0.52
1.358e-03,-0.58,-0.62
1.360e-03,-0.46,-0.42
1.362e-03,-0.48,-0.64
1.364e-03,-0.48,-0.4
1.366e-03,-0.62,-0.7
1.368e-03,-0.56,-0.54
1.370e-03,-0.66,-0.76
1.372e-03,-0.62,-0.6
1.374e-03,-0.68,-0.76
1.376e-03,-0.64,-0.58
1.378e-03,-0.68,-0.8
1.380e-03,-0.7,-0.6
1.381e-03,-0.72,-0.82
1.383e-03,-0.76,-0.64
1.385e-03,-0.74,-0.86
1.387e-03,-0.82,-0.72
1.389e-03,-0.78,-0.84
1.391e-03,-0.7,-0.6
1.393e-03,-0.62,-0.7
1.395e-03,-0.6,-0.5
1.397e-03,-0.56,-0.66
1.399e-03,-0.58,-0.48
1.401e-03,-0.6,-0.7
1.403e-03,-0.64,-0.54
1.404e-03,-0.64,-0.74
1.406e-03,-0.64,-0.6
1.408e-03,-0.72,-0.78
1.410e-03,-0.7,-0.6
1.412e-03,-0.68,-0.7
1.414e-03,-0.56,-0.56
1.416e-03,-0.64,-0.68
1.418e-03,-0.48,-0.44
1.420e-03,-0.52,-0.6
1.422e-03,-0.4,-0.38
1.424e-03,-0.56,-0.68
1.426e-03,-0.54,-0.46
1.428e-03,-0.64,-0.72
1.429e-03,-0.64,-0.54
1.431e-03,-0.62,-0.72
1.433e-03,-0.66,-0.56
1.435e-03,-0.58,-0.64
1.437e-03,-0.54,-0.36
1.439e-03,-0.38,-0.52
1.441e-03,-0.5,-0.36
1.443e-03,-0.44,-0.64
1.445e-03,-0.56,-0.42
1.447e-03,-0.54,-0.68
1.449e-03,-0.58,-0.52
1.451e-03,-0.6,-0.72
1.452e-03,-0.64,-0.56
1.454e-03,-0.62,-0.82
1.456e-03,-0.68,-0.58
1.458e-03,-0.8,-0.84
1.460e-03,-0.72,-0.68
1.462e-03,-0.82,-0.82
1.464e-03,-0.72,-0.64
1.466e-03,-0.7,-0.74
1.468e-03,-0.52,-0.48
1.470e-03,-0.54,-0.64
1.472e-03,-0.58,-0.48
1.474e-03,-0.58,-0.8
1.476e-03,-0.72,-0.52
1.477e-03,-0.66,-0.88
1.479e-03,-0.7,-0.58
1.481e-03,-0.8,-0.92
1.483e-03,-0.86,-0.72
1.485e-03,-0.76,-0.86
1.487e-03,-0.82,-0.68
1.489e-03,-0.68,-0.76
1.491e-03,-0.72,-0.6
1.493e-03,-0.64,-0.74
1.495e-03,-0.72,-0.58
1.497e-03,-0.62,-0.7
1.499e-03,-0.66,-0.5
1.500e-03,-0.58,-0.66
1.502e-03,-0.6,-0.5
1.504e-03,-0.58,-0.64
1.506e-03,-0.52,-0.46
1.508e-03,-0.6,-0.68
1.510e-03,-0.6,-0.56
1.512e-03,-0.64,-0.68
1.514e-03,-0.6,-0.56
1.516e-03,-0.68,-0.72
1.518e-03,-0.62,-0.58
1.520e-03,-0.7,-0.72
1.522e-03,-0.58,-0.54
1.524e-03,-0.62,-0.66
1.525e-03,-0.56,-0.5
1.527e-03,-0.58,-0.66
1.529e-03,-0.58,-0.5
1.531e-03,-0.6,-0.66
1.533e-03,-0.58,-0.5
1.535e-03,-0.56,-0.72
1.537e-03,-0.66,-0.52
1.539e-03,-0.64,-0.78
1.541e-03,-0.72,-0.62
1.543e-03,-0.68,-0.8
1.545e-03,-0.74,-0.6
1.547e-03,-0.62,-0.78
1.548e-03,-0.7,-0.58
1.550e-03,-0.68,-0.76
1.552e-03,-0.7,-0.62
1.554e-03,-0.68,-0.84
1.556e-03,-0.72,-0.62
1.558e-03,-0.8,-0.86
1.560e-03,-0.74,-0.6
1.562e-03,-0.66,-0.82
1.564e-03,-0.68,-0.58
1.566e-03,-0.76,-0.78
1.568e-03,-0.68,-0.56
1.570e-03,-0.62,-0.68
1.572e-03,-0.54,-0.5
1.573e-03,-0.64,-0.74
1.575e-03,-0.66,-0.58
1.577e-03,-0.66,-0.76
1.579e-03,-0.7,-0.6
1.581e-03,-0.64,-0.76
1.583e-03,-0.68,-0.6
1.585e-03,-0.66,-0.76
1.587e-03,-0.7,-0.6
1.589e-03,-0.64,-0.76
1.591e-03,-0.72,-0.62
1.593e-03,-0.66,-0.74
1.595e-03,-0.72,-0.58
1.596e-03,-0.6,-0.76
1.598e-03,-0.72,-0.56
1.600e-03,-0.68,-0.76
1.602e-03,-0.68,-0.62
1.604e-03,-0.72,-0.8
1.606e-03,-0.74,-0.6
1.608e-03,-0.66,-0.72
1.610e-03,-0.64,-0.58
1.612e-03,-0.68,-0.82
1.614e-03,-0.68,-0.6
1.616e-03,-0.78,-0.82
1.618e-03,-0.72,-0.68
1.620e-03,-0.74,-0.78
1.621e-03,-0.64,-0.58
1.623e-03,-0.6,-0.68
1.625e-03,-0.62,-0.52
1.627e-03,-0.62,-0.78
1.629e-03,-0.72,-0.58
1.631e-03,-0.62,-0.76
1.633e-03,-0.7,-0.6
1.635e-03,-0.64,-0.76
1.637e-03,-0.6,-0.48
1.639e-03,-0.5,-0.64
1.641e-03,-0.54,-0.46
1.643e-03,-0.54,-0.66
1.645e-03,-0.6,-0.5
1.646e-03,-0.56,-0.74
1.648e-03,-0.66,-0.52
1.650e-03,-0.66,-0.76
1.652e-03,-0.64,-0.6
1.654e-03,-0.72,-0.76
1.656e-03,-0.62,-0.6
1.658e-03,-0.68,-0.7
1.660e-03,-0.6,-0.5
1.662e-03,-0.62,-0.7
1.664e-03,-0.62,-0.54
1.666e-03,-0.68,-0.8
1.668e-03,-0.72,-0.6
1.669e-03,-0.72,-0.78
1.671e-03,-0.7,-0.62
1.673e-03,-0.72,-0.74
1.675e-03,-0.64,-0.52
1.677e-03,-0.56,-0.62
1.679e-03,-0.52,-0.42
1.681e-03,-0.46,-0.6
1.683e-03,-0.5,-0.42
1.685e-03,-0.5,-0.72
1.687e-03,-0.68,-0.48
1.689e-03,-0.62,-0.8
1.691e-03,-0.7,-0.6
1.693e-03,-0.7,-0.78
1.694e-03,-0.74,-0.66
1.696e-03,-0.68,-0.78
1.698e-03,-0.68,-0.6
1.700e-03,-0.7,-0.76
1.702e-03,-0.62,-0.56
1.704e-03,-0.7,-0.74
1.706e-03,-0.6,-0.56
1.708e-03,-0.68,-0.78
1.710e-03,-0.68,-0.62
1.712e-03,-0.74,-0.8
1.714e-03,-0.66,-0.64
1.716e-03,-0.76,-0.84
1.717e-03,-0.74,-0.7
1.719e-03,-0.78,-0.84
1.721e-03,-0.64,-0.62
1.723e-03,-0.64,-0.72
1.725e-03,-0.6,-0.54
1.727e-03,-0.58,-0.66
1.729e-03,-0.54,-0.44
1.731e-03,-0.46,-0.62
1.733e-03,-0.58,-0.46
1.735e-03,-0.54,-0.66
1.737e-03,-0.6,-0.52
1.739e-03,-0.56,-0.64
1.741e-03,-0.62,-0.5
1.742e-03,-0.56,-0.68
1.744e-03,-0.64,-0.5
1.746e-03,-0.54,-0.68
1.748e-03,-0.56,-0.48
1.750e-03,-0.64,-0.76
1.752e-03,-0.6,-0.56
1.754e-03,-0.74,-0.76
1.756e-03,-0.6,-0.58
1.758e-03,-0.68,-0.74
1.760e-03,-0.64,-0.58
1.762e-03,-0.7,-0.74
1.764e-03,-0.64,-0.6
1.765e-03,-0.72,-0.74
1.767e-03,-0.64,-0.6
1.769e-03,-0.72,-0.8
1.771e-03,-0.68,-0.64
1.773e-03,-0.74,-0.82
1.775e-03,-0.72,-0.64
1.777e-03,-0.7,-0.76
1.779e-03,-0.66,-0.58
1.781e-03,-0.64,-0.76
1.783e-03,-0.7,-0.54
1.785e-03,-0.54,-0.7
1.787e-03,-0.62,-0.5
1.789e-03,-0.6,-0.74
1.790e-03,-0.68,-0.56
1.792e-03,-0.58,-0.72
1.794e-03,-0.62,-0.56
1.796e-03,-0.64,-0.72
1.798e-03,-0.64,-0.6
1.800e-03,-0.66,-0.7
1.802e-03,-0.62,-0.58
1.804e-03,-0.66,-0.74
1.806e-03,-0.6,-0.56
1.808e-03,-0.66,-0.76
1.810e-03,-0.66,-0.6
1.812e-03,-0.7,-0.76
1.813e-03,-0.64,-0.56
1.815e-03,-0.62,-0.74
1.817e-03,-0.54,-0.54
1.819e-03,-0.68,-0.8
1.821e-03,-0.74,-0.64
1.823e-03,-0.68,-0.82
1.825e-03,-0.74,-0.64
1.827e-03,-0.66,-0.74
1.829e-03,-0.68,-0.58
1.831e-03,-0.6,-0.72
1.833e-03,-0.66,-0.56
1.835e-03,-0.64,-0.74
1.837e-03,-0.66,-0.58
1.838e-03,-0.62,-0.72
1.840e-03,-0.64,-0.56
1.842e-03,-0.64,-0.7
1.844e-03,-0.66,-0.56
1.846e-03,-0.66,-0.84
1.848e-03,-0.74,-0.62
1.850e-03,-0.8,-0.9
1.852e-03,-0.84,-0.72
1.854e-03,-0.8,-0.82
1.856e-03,-0.64,-0.6
1.858e-03,-0.72,-0.76
1.860e-03,-0.64,-0.58
1.861e-03,-0.7,-0.76
1.863e-03,-0.68,-0.62
1.865e-03,-0.7,-0.74
1.867e-03,-0.64,-0.58
1.869e-03,-0.68,-0.76
1.871e-03,-0.7,-0.58
1.873e-03,-0.64,-0.7
1.875e-03,-0.64,-0.56
1.877e-03,-0.62,-0.84
1.879e-03,-0.76,-0.6
1.881e-03,-0.76,-0.86
1.883e-03,-0.82,-0.72
1.885e-03,-0.72,-0.82
1.886e-03,-0.72,-0.62
1.888e-03,-0.66,-0.76
1.890e-03,-0.62,-0.56
1.892e-03,-0.68,-0.84
1.894e-03,-0.74,-0.64
1.896e-03,-0.78,-0.82
1.898e-03,-0.74,-0.68
1.900e-03,-0.74,-0.78
1.902e-03,-0.68,-0.64
1.904e-03,-0.74,-0.8
1.906e-03,-0.7,-0.66
1.908e-03,-0.78,-0.8
1.909e-03,-0.68,-0.64
1.911e-03,-0.76,-0.82
1.913e-03,-0.7,-0.68
1.915e-03,-0.76,-0.82
1.917e-03,-0.72,-0.68
1.919e-03,-0.74,-0.82
1.921e-03,-0.64,-0.52
1.923e-03,-0.58,-0.66
1.925e-03,-0.6,-0.54
1.927e-03,-0.58,-0.72
1.929e-03,-0.66,-0.54
1.931e-03,-0.62,-0.76
1.933e-03,-0.68,-0.6
1.934e-03,-0.64,-0.74
1.936e-03,-0.68,-0.56
1.938e-03,-0.62,-0.72
1.940e-03,-0.64,-0.54
1.942e-03,-0.6,-0.68
1.944e-03,-0.58,-0.5
1.946e-03,-0.56,-0.68
1.948e-03,-0.6,-0.52
1.950e-03,-0.6,-0.68
1.952e-03,-0.54,-0.5
1.954e-03,-0.62,-0.74
1.956e-03,-0.64,-0.56
1.957e-03,-0.7,-0.72
1.959e-03,-0.6,-0.58
1.961e-03,-0.66,-0.74
1.963e-03,-0.64,-0.58
1.965e-03,-0.66,-0.76
1.967e-03,-0.64,-0.58
1.969e-03,-0.64,-0.76
1.971e-03,-0.64,-0.58
1.973e-03,-0.72,-0.84
1.975e-03,-0.78,-0.66
1.977e-03,-0.72,-0.86
1.979e-03,-0.78,-0.7
1.981e-03,-0.74,-0.84
1.982e-03,-0.76,-0.64
1.984e-03,-0.66,-0.78
1.986e-03,-0.72,-0.6
1.988e-03,-0.62,-0.74
1.990e-03,-0.64,-0.58
1.992e-03,-0.64,-0.78
1.994e-03,-0.64,-0.6
1.996e-03,-0.74,-0.78
1.998e-03,-0.66,-0.58
2.000e-03,-0.68,-0.74
2.002e-03,-0.62,-0.58
2.004e-03,-0.68,-0.7
2.005e-03,-0.58,-0.56
2.007e-03,-0.68,-0.72
2.009e-03,-0.62,-0.58
2.011e-03,-0.68,-0.7
2.013e-03,-0.56,-0.54
2.015e-03,-0.62,-0.66
2.017e-03,-0.54,-0.48
2.019e-03,-0.58,-0.76
2.021e-03,-0.68,-0.54
2.023e-03,-0.68,-0.74
2.025e-03,-0.64,-0.52
2.027e-03,-0.56,-0.7
2.029e-03,-0.6,-0.52
2.030e-03,-0.6,-0.74
2.032e-03,-0.66,-0.56
2.034e-03,-0.64,-0.84
2.036e-03,-0.8,-0.62
2.038e-03,-0.72,-0.8
2.040e-03,-0.74,-0.64
2.042e-03,-0.76,-0.9
2.044e-03,-0.86,-0.7
2.046e-03,-0.78,-0.84
2.048e-03,-0.68,-0.64
2.050e-03,-0.74,-0.78
2.052e-03,-0.66,-0.64
2.053e-03,-0.72,-0.74
2.055e-03,-0.66,-0.6
2.057e-03,-0.7,-0.8
2.059e-03,-0.58,-0.58
2.061e-03,-0.76,-0.82
2.063e-03,-0.68,-0.62
2.065e-03,-0.66,-0.74
2.067e-03,-0.62,-0.58
2.069e-03,-0.64,-0.74
2.071e-03,-0.64,-0.58
2.073e-03,-0.66,-0.76
2.075e-03,-0.7,-0.62
2.077e-03,-0.64,-0.72
2.078e-03,-0.66,-0.58
2.080e-03,-0.62,-0.8
2.082e-03,-0.72,-0.6
2.084e-03,-0.7,-0.82
2.086e-03,-0.7,-0.64
2.088e-03,-0.76,-0.84
2.090e-03,-0.76,-0.62
2.092e-03,-0.66,-0.72
2.094e-03,-0.62,-0.58
2.096e-03,-0.66,-0.74
2.098e-03,-0.66,-0.56
2.100e-03,-0.66,-0.82
2.101e-03,-0.72,-0.6
2.103e-03,-0.76,-0.84
2.105e-03,-0.7,-0.68
2.107e-03,-0.78,-0.8
2.109e-03,-0.62,-0.58
2.111e-03,-0.68,-0.7
2.113e-03,-0.6,-0.56
2.115e-03,-0.68,-0.72
2.117e-03,-0.62,-0.56
2.119e-03,-0.62,-0.7
2.121e-03,-0.6,-0.56
2.123e-03,-0.62,-0.8
2.125e-03,-0.74,-0.6
2.126e-03,-0.68,-0.76
2.128e-03,-0.7,-0.58
2.130e-03,-0.62,-0.88
2.132e-03,-0.78,-0.6
2.134e-03,-0.78,-0.86
2.136e-03,-0.78,-0.68
2.138e-03,-0.72,-0.86
2.140e-03,-0.8,-0.62
2.142e-03,-0.68,-0.74
2.144e-03,-0.64,-0.6
2.146e-03,-0.64,-0.68
2.148e-03,-0.56,-0.52
2.149e-03,-0.6,-0.72
2.151e-03,-0.54,-0.52
2.153e-03,-0.7,-0.72
2.155e-03,-0.56,-0.52
2.157e-03,-0.62,-0.72
2.159e-03,-0.6,-0.54
2.161e-03,-0.64,-0.74
2.163e-03,-0.64,-0.58
2.165e-03,-0.64,-0.78
2.167e-03,-0.64,-0.6
2.169e-03,-0.7,-0.76
2.171e-03,-0.66,-0.56
2.173e-03,-0.58,-0.74
2.174e-03,-0.68,-0.56
2.176e-03,-0.66,-0.78
2.178e-03,-0.7,-0.6
2.180e-03,-0.68,-0.84
2.182e-03,-0.78,-0.66
2.184e-03,-0.74,-0.88
2.186e-03,-0.78,-0.7
2.188e-03,-0.8,-0.88
2.190e-03,-0.76,-0.7
2.192e-03,-0.78,-0.84
2.194e-03,-0.66,-0.62
2.196e-03,-0.72,-0.78
2.197e-03,-0.62,-0.58
2.199e-03,-0.68,-0.78
2.201e-03,-0.68,-0.62
2.203e-03,-0.74,-0.76
2.205e-03,-0.62,-0.56
2.207e-03,-0.68,-0.72
2.209e-03,-0.62,-0.58
2.211e-03,-0.68,-0.74
2.213e-03,-0.66,-0.54
2.215e-03,-0.62,-0.78
2.217e-03,-0.68,-0.56
2.219e-03,-0.7,-0.76
2.221e-03,-0.58,-0.5
2.222e-03,-0.6,-0.72
2.224e-03,-0.64,-0.56
2.226e-03,-0.64,-0.78
2.228e-03,-0.76,-0.62
2.230e-03,-0.64,-0.74
2.232e-03,-0.7,-0.56
2.234e-03,-0.58,-0.72
2.236e-03,-0.64,-0.54
2.238e-03,-0.66,-0.76
2.240e-03,-0.66,-0.58
2.242e-03,-0.62,-0.68
2.244e-03,-0.6,-0.5
2.245e-03,-0.6,-0.68
2.247e-03,-0.56,-0.52
2.249e-03,-0.64,-0.76
2.251e-03,-0.58,-0.56
2.253e-03,-0.72,-0.84
2.255e-03,-0.7,-0.64
2.257e-03,-0.8,-0.84
2.259e-03,-0.66,-0.56
2.261e-03,-0.6,-0.7
2.263e-03,-0.6,-0.52
2.265e-03,-0.64,-0.78
2.267e-03,-0.7,-0.6
2.269e-03,-0.68,-0.74
2.270e-03,-0.68,-0.58
2.272e-03,-0.62,-0.78
2.274e-03,-0.72,-0.62
2.276e-03,-0.7,-0.8
2.278e-03,-0.76,-0.64
2.280e-03,-0.66,-0.76
2.282e-03,-0.64,-0.54
2.284e-03,-0.62,-0.76
2.286e-03,-0.72,-0.6
2.288e-03,-0.66,-0.8
2.290e-03,-0.74,-0.6
2.292e-03,-0.78,-0.84
2.294e-03,-0.66,-0.62
2.295e-03,-0.68,-0.82
2.297e-03,-0.72,-0.64
2.299e-03,-0.78,-0.82
2.301e-03,-0.72,-0.64
2.303e-03,-0.74,-0.86
2.305e-03,-0.74,-0.66
2.307e-03,-0.74,-0.8
2.309e-03,-0.68,-0.66
2.311e-03,-0.72,-0.78
2.313e-03,-0.7,-0.58
2.315e-03,-0.64,-0.78
2.317e-03,-0.7,-0.6
2.318e-03,-0.7,-0.78
2.320e-03,-0.7,-0.62
2.322e-03,-0.64,-0.82
2.324e-03,-0.7,-0.6
2.326e-03,-0.72,-0.8
2.328e-03,-0.72,-0.62
2.330e-03,-0.64,-0.76
2.332e-03,-0.68,-0.6
2.334e-03,-0.62,-0.76
2.336e-03,-0.68,-0.58
2.338e-03,-0.66,-0.74
2.340e-03,-0.66,-0.58
2.342e-03,-0.68,-0.86
2.343e-03,-0.7,-0.64
2.345e-03,-0.86,-0.9
2.347e-03,-0.8,-0.68
2.349e-03,-0.74,-0.78
2.351e-03,-0.6,-0.58
2.353e-03,-0.66,-0.8
2.355e-03,-0.7,-0.6
2.357e-03,-0.74,-0.86
2.359e-03,-0.78,-0.66
2.361e-03,-0.8,-0.88
2.363e-03,-0.78,-0.72
2.365e-03,-0.76,-0.86
2.366e-03,-0.78,-0.7
2.368e-03,-0.8,-0.86
2.370e-03,-0.76,-0.66
2.372e-03,-0.68,-0.8
2.374e-03,-0.78,-0.66
2.376e-03,-0.66,-0.8
2.378e-03,-0.66,-0.56
2.380e-03,-0.72,-0.86
2.382e-03,-0.84,-0.68
2.384e-03,-0.7,-0.84
2.386e-03,-0.82,-0.66
2.388e-03,-0.76,-0.84
2.390e-03,-0.78,-0.7
2.391e-03,-0.82,-0.88
2.393e-03,-0.78,-0.72
2.395e-03,-0.8,-0.92
2.397e-03,-0.84,-0.74
2.399e-03,-0.82,-0.84
2.401e-03,-0.72,-0.68
2.403e-03,-0.8,-0.84
2.405e-03,-0.72,-0.7
2.407e-03,-0.76,-0.86
2.409e-03,-0.72,-0.66
2.411e-03,-0.8,-0.88
2.413e-03,-0.82,-0.68
2.414e-03,-0.7,-0.76
2.416e-03,-0.64,-0.58
2.418e-03,-0.62,-0.7
2.420e-03,-0.66,-0.56
2.422e-03,-0.58,-0.78
2.424e-03,-0.68,-0.56
2.426e-03,-0.68,-0.76
2.428e-03,-0.72,-0.64
2.430e-03,-0.66,-0.82
2.432e-03,-0.72,-0.64
2.434e-03,-0.76,-0.84
2.436e-03,-0.74,-0.7
2.438e-03,-0.78,-0.84
2.439e-03,-0.72,-0.62
2.441e-03,-0.7,-0.76
2.443e-03,-0.58,-0.54
2.445e-03,-0.72,-0.8
2.447e-03,-0.7,-0.64
2.449e-03,-0.78,-0.82
2.451e-03,-0.68,-0.66
2.453e-03,-0.76,-0.84
2.455e-03,-0.76,-0.66
2.457e-03,-0.72,-0.82
2.459e-03,-0.72,-0.66
2.461e-03,-0.74,-0.9
2.462e-03,-0.78,-0.68
2.464e-03,-0.8,-0.88
2.466e-03,-0.72,-0.6
2.468e-03,-0.62,-0.68
2.470e-03,-0.58,-0.5
2.472e-03,-0.58,-0.7
2.474e-03,-0.68,-0.54
2.476e-03,-0.56,-0.72
2.478e-03,-0.66,-0.56
2.480e-03,-0.6,-0.78
2.482e-03,-0.72,-0.56
2.484e-03,-0.7,-0.76
2.486e-03,-0.66,-0.6
2.487e-03,-0.7,-0.82
2.489e-03,-0.68,-0.62
2.491e-03,-0.76,-0.8
2.493e-03,-0.68,-0.64
2.495e-03,-0.78,-0.82
2.497e-03,-0.72,-0.66
2.499e-03,-0.74,-0.78
2.501e-03,-0.64,-0.56
2.503e-03,-0.62,-0.74
2.505e-03,-0.58,-0.54
2.507e-03,-0.68,-0.76
2.509e-03,-0.62,-0.58
2.510e-03,-0.68,-0.82
2.512e-03,-0.7,-0.62
2.514e-03,-0.72,-0.82
2.516e-03,-0.76,-0.68
2.518e-03,-0.72,-0.8
2.520e-03,-0.72,-0.58
2.522e-03,-0.6,-0.82
2.524e-03,-0.74,-0.58
2.526e-03,-0.72,-0.9
2.528e-03,-0.8,-0.7
2.530e-03,-0.82,-0.96
2.532e-03,-0.92,-0.76
2.534e-03,-0.78,-0.84
2.535e-03,-0.72,-0.64
2.537e-03,-0.74,-0.86
2.539e-03,-0.76,-0.66
2.541e-03,-0.76,-0.82
2.543e-03,-0.72,-0.68
2.545e-03,-0.74,-0.78
2.547e-03,-0.64,-0.6
2.549e-03,-0.68,-0.86
2.551e-03,-0.72,-0.6
2.553e-03,-0.84,-0.9
2.555e-03,-0.84,-0.76
2.557e-03,-0.86,-0.88
2.558e-03,-0.68,-0.62
2.560e-03,-0.7,-0.76
2.562e-03,-0.66,-0.6
2.564e-03,-0.7,-0.82
2.566e-03,-0.76,-0.66
2.568e-03,-0.72,-0.82
2.570e-03,-0.72,-0.62
2.572e-03,-0.64,-0.78
2.574e-03,-0.76,-0.6
2.576e-03,-0.66,-0.78
2.578e-03,-0.72,-0.62
2.580e-03,-0.68,-0.82
2.582e-03,-0.74,-0.66
2.583e-03,-0.76,-0.82
2.585e-03,-0.72,-0.66
2.587e-03,-0.76,-0.88
2.589e-03,-0.8,-0.7
2.591e-03,-0.76,-0.84
2.593e-03,-0.74,-0.68
2.595e-03,-0.78,-0.8
2.597e-03,-0.68,-0.62
2.599e-03,-0.74,-0.78
2.601e-03,-0.64,-0.64
2.603e-03,-0.72,-0.78
2.605e-03,-0.66,-0.62
2.606e-03,-0.68,-0.76
2.608e-03,-0.6,-0.5
2.610e-03,-0.52,-0.64
2.612e-03,-0.56,-0.46
2.614e-03,-0.56,-0.76
2.616e-03,-0.72,-0.56
2.618e-03,-0.62,-0.7
2.620e-03,-0.64,-0.56
2.622e-03,-0.6,-0.7
2.624e-03,-0.66,-0.56
2.626e-03,-0.58,-0.74
2.628e-03,-0.64,-0.56
2.630e-03,-0.7,-0.86
2.631e-03,-0.84,-0.64
2.633e-03,-0.68,-0.74
2.635e-03,-0.62,-0.58
2.637e-03,-0.66,-0.68
2.639e-03,-0.54,-0.5
2.641e-03,-0.64,-0.7
2.643e-03,-0.6,-0.58
2.645e-03,-0.7,-0.9
2.647e-03,-0.72,-0.64
2.649e-03,-0.88,-0.9
2.651e-03,-0.74,-0.68
2.653e-03,-0.76,-0.78
2.654e-03,-0.62,-0.56
2.656e-03,-0.62,-0.72
2.658e-03,-0.58,-0.48
2.660e-03,-0.66,-0.74
2.662e-03,-0.66,-0.58
2.664e-03,-0.64,-0.7
2.666e-03,-0.62,-0.54
2.668e-03,-0.56,-0.78
2.670e-03,-0.62,-0.52
2.672e-03,-0.7,-0.84
2.674e-03,-0.8,-0.68
2.676e-03,-0.7,-0.8
2.678e-03,-0.72,-0.62
2.679e-03,-0.66,-0.8
2.681e-03,-0.7,-0.62
2.683e-03,-0.7,-0.76
2.685e-03,-0.66,-0.58
2.687e-03,-0.62,-0.68
2.689e-03,-0.58,-0.54
2.691e-03,-0.66,-0.92
2.693e-03,-0.78,-0.6
2.695e-03,-0.88,-0.9
2.697e-03,-0.76,-0.66
2.699e-03,-0.74,-0.78
2.701e-03,-0.66,-0.64
2.702e-03,-0.72,-0.82
2.704e-03,-0.72,-0.64
2.706e-03,-0.68,-0.78
2.708e-03,-0.7,-0.62
2.710e-03,-0.66,-0.76
2.712e-03,-0.72,-0.64
2.714e-03,-0.64,-0.78
2.716e-03,-0.72,-0.62
2.718e-03,-0.7,-0.88
2.720e-03,-0.84,-0.7
2.722e-03,-0.78,-0.86
2.724e-03,-0.82,-0.7
2.726e-03,-0.74,-0.82
2.727e-03,-0.78,-0.68
2.729e-03,-0.72,-0.78
2.731e-03,-0.7,-0.64
2.733e-03,-0.72,-0.82
2.735e-03,-0.74,-0.64
2.737e-03,-0.7,-0.76
2.739e-03,-0.64,-0.62
2.741e-03,-0.72,-0.84
2.743e-03,-0.76,-0.64
2.745e-03,-0.76,-0.82
2.747e-03,-0.7,-0.6
2.749e-03,-0.68,-0.78
2.750e-03,-0.66,-0.6
2.752e-03,-0.72,-0.78
2.754e-03,-0.68,-0.64
2.756e-03,-0.72,-0.78
2.758e-03,-0.64,-0.56
2.760e-03,-0.62,-0.82
2.762e-03,-0.68,-0.58
2.764e-03,-0.74,-0.84
2.766e-03,-0.78,-0.68
2.768e-03,-0.7,-0.84
2.770e-03,-0.8,-0.7
2.772e-03,-0.72,-0.86
2.774e-03,-0.8,-0.72
2.775e-03,-0.72,-0.8
2.777e-03,-0.66,-0.6
2.779e-03,-0.66,-0.74
2.781e-03,-0.64,-0.6
2.783e-03,-0.7,-0.76
2.785e-03,-0.66,-0.6
2.787e-03,-0.7,-0.74
2.789e-03,-0.6,-0.56
2.791e-03,-0.64,-0.76
2.793e-03,-0.6,-0.54
2.795e-03,-0.74,-0.86
2.797e-03,-0.8,-0.7
2.798e-03,-0.82,-0.88
2.800e-03,-0.76,-0.74
2.802e-03,-0.82,-0.88
2.804e-03,-0.8,-0.72
2.806e-03,-0.78,-0.86
2.808e-03,-0.8,-0.72
2.810e-03,-0.78,-0.84
2.812e-03,-0.74,-0.64
2.814e-03,-0.64,-0.8
2.816e-03,-0.76,-0.62
2.818e-03,-0.7,-0.86
2.820e-03,-0.82,-0.66
2.822e-03,-0.7,-0.74
2.823e-03,-0.66,-0.56
2.825e-03,-0.64,-0.82
2.827e-03,-0.7,-0.58
2.829e-03,-0.78,-0.84
2.831e-03,-0.76,-0.6
2.833e-03,-0.66,-0.84
2.835e-03,-0.68,-0.58
2.837e-03,-0.78,-0.84
2.839e-03,-0.72,-0.7
2.841e-03,-0.82,-0.84
2.843e-03,-0.66,-0.64
2.845e-03,-0.72,-0.76
2.846e-03,-0.62,-0.62
2.848e-03,-0.68,-0.72
2.850e-03,-0.6,-0.58
2.852e-03,-0.62,-0.78
2.854e-03,-0.68,-0.56
2.856e-03,-0.7,-0.88
2.858e-03,-0.72,-0.64
2.860e-03,-0.84,-0.92
2.862e-03,-0.86,-0.72
2.864e-03,-0.74,-0.86
2.866e-03,-0.72,-0.62
2.868e-03,-0.66,-0.76
2.870e-03,-0.64,-0.48
2.871e-03,-0.5,-0.74
2.873e-03,-0.6,-0.48
2.875e-03,-0.64,-0.74
2.877e-03,-0.64,-0.58
2.879e-03,-0.68,-0.78
2.881e-03,-0.7,-0.64
2.883e-03,-0.76,-0.8
2.885e-03,-0.66,-0.64
2.887e-03,-0.76,-0.82
2.889e-03,-0.72,-0.68
2.891e-03,-0.8,-0.88
2.893e-03,-0.74,-0.72
2.895e-03,-0.84,-0.9
2.896e-03,-0.82,-0.76
2.898e-03,-0.88,-0.9
2.900e-03,-0.78,-0.72
2.902e-03,-0.82,-0.84
2.904e-03,-0.78,-0.7
2.906e-03,-0.74,-0.82
2.908e-03,-0.76,-0.68
2.910e-03,-0.72,-0.84
2.912e-03,-0.76,-0.64
2.914e-03,-0.68,-0.78
2.916e-03,-0.74,-0.64
2.918e-03,-0.64,-0.74
2.919e-03,-0.68,-0.58
2.921e-03,-0.66,-0.78
2.923e-03,-0.74,-0.58
2.925e-03,-0.64,-0.76
2.927e-03,-0.68,-0.62
2.929e-03,-0.72,-0.88
2.931e-03,-0.76,-0.66
2.933e-03,-0.84,-0.88
2.935e-03,-0.74,-0.66
2.937e-03,-0.74,-0.82
2.939e-03,-0.7,-0.68
2.941e-03,-0.8,-0.8
2.943e-03,-0.68,-0.64
2.944e-03,-0.72,-0.8
2.946e-03,-0.66,-0.64
2.948e-03,-0.76,-0.8
2.950e-03,-0.62,-0.58
2.952e-03,-0.6,-0.72
2.954e-03,-0.64,-0.58
2.956e-03,-0.66,-0.84
2.958e-03,-0.74,-0.6
2.960e-03,-0.74,-0.82
2.962e-03,-0.74,-0.62
2.964e-03,-0.68,-0.76
2.966e-03,-0.7,-0.58
2.967e-03,-0.62,-0.72
2.969e-03,-0.68,-0.54
2.971e-03,-0.56,-0.68
2.973e-03,-0.58,-0.52
2.975e-03,-0.62,-0.78
2.977e-03,-0.7,-0.58
2.979e-03,-0.74,-0.82
2.981e-03,-0.66,-0.64
2.983e-03,-0.78,-0.86
2.985e-03,-0.76,-0.7
2.987e-03,-0.78,-0.8
2.989e-03,-0.68,-0.6
2.991e-03,-0.7,-0.74
2.992e-03,-0.64,-0.58
2.994e-03,-0.72,-0.76
2.996e-03,-0.68,-0.64
2.998e-03,-0.74,-0.84
3.000e-03,-0.76,-0.64
3.002e-03,-0.78,-0.86
3.004e-03,-0.74,-0.7
3.006e-03,-0.76,-0.82
3.008e-03,-0.66,-0.58
3.010e-03,-0.64,-0.82
3.012e-03,-0.72,-0.62
3.014e-03,-0.7,-0.78
3.015e-03,-0.7,-0.58
3.017e-03,-0.6,-0.8
3.019e-03,-0.68,-0.58
3.021e-03,-0.72,-0.82
3.023e-03,-0.76,-0.64
3.025e-03,-0.68,-0.78
3.027e-03,-0.72,-0.64
3.029e-03,-0.7,-0.78
3.031e-03,-0.68,-0.58
3.033e-03,-0.72,-0.9
3.035e-03,-0.76,-0.66
3.037e-03,-0.86,-0.92
3.039e-03,-0.78,-0.72
3.040e-03,-0.8,-0.84
3.042e-03,-0.74,-0.66
3.044e-03,-0.72,-0.78
3.046e-03,-0.62,-0.54
3.048e-03,-0.58,-0.7
3.050e-03,-0.62,-0.54
3.052e-03,-0.62,-0.76
3.054e-03,-0.68,-0.58
3.056e-03,-0.66,-0.84
3.058e-03,-0.78,-0.62
3.060e-03,-0.72,-0.8
3.062e-03,-0.78,-0.66
3.063e-03,-0.7,-0.86
3.065e-03,-0.82,-0.68
3.067e-03,-0.78,-0.86
3.069e-03,-0.82,-0.72
3.071e-03,-0.74,-0.82
3.073e-03,-0.72,-0.58
3.075e-03,-0.62,-0.68
3.077e-03,-0.64,-0.54
3.079e-03,-0.6,-0.7
3.081e-03,-0.6,-0.56
3.083e-03,-0.66,-0.84
3.085e-03,-0.66,-0.56
3.087e-03,-0.78,-0.82
3.088e-03,-0.68,-0.64
3.090e-03,-0.78,-0.88
3.092e-03,-0.68,-0.64
3.094e-03,-0.86,-0.88
3.096e-03,-0.68,-0.6
3.098e-03,-0.68,-0.74
3.100e-03,-0.62,-0.56
3.102e-03,-0.68,-0.74
3.104e-03,-0.66,-0.6
3.106e-03,-0.62,-0.82
3.108e-03,-0.72,-0.58
3.110e-03,-0.72,-0.82
3.111e-03,-0.76,-0.62
3.113e-03,-0.64,-0.76
3.115e-03,-0.74,-0.62
3.117e-03,-0.6,-0.74
3.119e-03,-0.7,-0.58
3.121e-03,-0.58,-0.76
3.123e-03,-0.68,-0.56
3.125e-03,-0.66,-0.74
3.127e-03,-0.64,-0.6
3.129e-03,-0.64,-0.74
3.131e-03,-0.64,-0.6
3.133e-03,-0.68,-0.76
3.135e-03,-0.62,-0.58
3.136e-03,-0.74,-0.9
3.138e-03,-0.78,-0.68
3.140e-03,-0.86,-0.9
3.142e-03,-0.76,-0.74
3.144e-03,-0.8,-0.86
3.146e-03,-0.74,-0.68
3.148e-03,-0.72,-0.78
3.150e-03,-0.72,-0.64
3.152e-03,-0.66,-0.8
3.154e-03,-0.66,-0.6
3.156e-03,-0.68,-0.82
3.158e-03,-0.74,-0.62
3.159e-03,-0.74,-0.86
3.161e-03,-0.8,-0.7
3.163e-03,-0.72,-0.82
3.165e-03,-0.76,-0.66
3.167e-03,-0.76,-0.84
3.169e-03,-0.76,-0.68
3.171e-03,-0.72,-0.82
3.173e-03,-0.8,-0.7
3.175e-03,-0.76,-0.86
3.177e-03,-0.74,-0.68
3.179e-03,-0.8,-0.86
3.181e-03,-0.74,-0.62
3.183e-03,-0.68,-0.72
3.184e-03,-0.56,-0.54
3.186e-03,-0.7,-0.76
3.188e-03,-0.68,-0.62
3.190e-03,-0.74,-0.78
3.192e-03,-0.66,-0.64
3.194e-03,-0.74,-0.78
3.196e-03,-0.68,-0.62
3.198e-03,-0.66,-0.76
3.200e-03,-0.62,-0.56
3.202e-03,-0.7,-0.76
3.204e-03,-0.66,-0.58
3.206e-03,-0.68,-0.88
3.207e-03,-0.72,-0.62
3.209e-03,-0.78,-0.9
3.211e-03,-0.82,-0.7
3.213e-03,-0.82,-0.9
3.215e-03,-0.8,-0.7
3.217e-03,-0.74,-0.86
3.219e-03,-0.78,-0.72
3.221e-03,-0.74,-0.82
3.223e-03,-0.74,-0.64
3.225e-03,-0.72,-0.78
3.227e-03,-0.68,-0.64
3.229e-03,-0.72,-0.78
3.231e-03,-0.66,-0.62
3.232e-03,-0.72,-0.74
3.234e-03,-0.66,-0.6
3.236e-03,-0.7,-0.76
3.238e-03,-0.64,-0.58
3.240e-03,-0.66,-0.72
3.242e-03,-0.6,-0.54
3.244e-03,-0.68,-0.72
3.246e-03,-0.62,-0.58
3.248e-03,-0.66,-0.82
3.250e-03,-0.66,-0.6
3.252e-03,-0.74,-0.84
3.254e-03,-0.8,-0.66
3.255e-03,-0.72,-0.84
3.257e-03,-0.8,-0.68
3.259e-03,-0.68,-0.76
3.261e-03,-0.72,-0.64
3.263e-03,-0.66,-0.84
3.265e-03,-0.78,-0.62
3.267e-03,-0.76,-0.9
3.269e-03,-0.84,-0.74
3.271e-03,-0.78,-0.88
3.273e-03,-0.74,-0.68
3.275e-03,-0.84,-0.9
3.277e-03,-0.76,-0.7
3.279e-03,-0.78,-0.84
3.280e-03,-0.74,-0.7
3.282e-03,-0.78,-0.8
3.284e-03,-0.7,-0.62
3.286e-03,-0.74,-0.78
3.288e-03,-0.68,-0.64
3.290e-03,-0.76,-0.9
3.292e-03,-0.8,-0.7
3.294e-03,-0.84,-0.88
3.296e-03,-0.72,-0.66
3.298e-03,-0.7,-0.82
3.300e-03,-0.72,-0.64
3.302e-03,-0.7,-0.78
3.303e-03,-0.7,-0.62
3.305e-03,-0.7,-0.84
3.307e-03,-0.82,-0.66
3.309e-03,-0.72,-0.84
3.311e-03,-0.8,-0.66
3.313e-03,-0.66,-0.78
3.315e-03,-0.72,-0.64
3.317e-03,-0.72,-0.8
3.319e-03,-0.72,-0.58
3.321e-03,-0.62,-0.74
3.323e-03,-0.64,-0.54
3.325e-03,-0.68,-0.74
3.327e-03,-0.62,-0.6
3.328e-03,-0.68,-0.74
3.330e-03,-0.64,-0.6
3.332e-03,-0.68,-0.78
3.334e-03,-0.68,-0.6
3.336e-03,-0.78,-0.8
3.338e-03,-0.7,-0.66
3.340e-03,-0.76,-0.78
3.342e-03,-0.68,-0.64
3.344e-03,-0.74,-0.82
3.346e-03,-0.72,-0.66
3.348e-03,-0.74,-0.84
3.350e-03,-0.74,-0.64
3.351e-03,-0.74,-0.8
3.353e-03,-0.72,-0.64
3.355e-03,-0.68,-0.78
3.357e-03,-0.74,-0.62
3.359e-03,-0.66,-0.8
3.361e-03,-0.8,-0.62
3.363e-03,-0.64,-0.76
3.365e-03,-0.64,-0.56
3.367e-03,-0.66,-0.8
3.369e-03,-0.7,-0.62
3.371e-03,-0.74,-0.84
3.373e-03,-0.78,-0.6
3.375e-03,-0.64,-0.76
3.376e-03,-0.64,-0.6
3.378e-03,-0.74,-0.9
3.380e-03,-0.78,-0.7
3.382e-03,-0.86,-0.9
3.384e-03,-0.8,-0.72
3.386e-03,-0.8,-0.84
3.388e-03,-0.72,-0.7
3.390e-03,-0.74,-0.8
3.392e-03,-0.64,-0.6
3.394e-03,-0.64,-0.8
3.396e-03,-0.72,-0.62
3.398e-03,-0.68,-0.86
3.399e-03,-0.74,-0.64
3.401e-03,-0.76,-0.86
3.403e-03,-0.72,-0.62
3.405e-03,-0.64,-0.76
3.407e-03,-0.74,-0.6
3.409e-03,-0.68,-0.74
3.411e-03,-0.66,-0.58
3.413e-03,-0.62,-0.82
3.415e-03,-0.66,-0.58
3.417e-03,-0.76,-0.82
3.419e-03,-0.74,-0.66
3.421e-03,-0.76,-0.88
3.423e-03,-0.72,-0.66
3.424e-03,-0.74,-0.78
3.426e-03,-0.6,-0.5
3.428e-03,-0.56,-0.66
3.430e-03,-0.46,-0.4
3.432e-03,-0.66,-0.76
3.434e-03,-0.64,-0.58
3.436e-03,-0.68,-0.78
3.438e-03,-0.66,-0.58
3.440e-03,-0.78,-0.86
3.442e-03,-0.76,-0.68
3.444e-03,-0.78,-0.8
3.446e-03,-0.7,-0.62
3.447e-03,-0.66,-0.78
3.449e-03,-0.7,-0.62
3.451e-03,-0.72,-0.84
3.453e-03,-0.78,-0.66
3.455e-03,-0.74,-0.82
3.457e-03,-0.68,-0.6
3.459e-03,-0.66,-0.84
3.461e-03,-0.8,-0.64
3.463e-03,-0.74,-0.84
3.465e-03,-0.76,-0.68
3.467e-03,-0.74,-0.82
3.469e-03,-0.76,-0.62
3.471e-03,-0.64,-0.72
3.472e-03,-0.66,-0.54
3.474e-03,-0.6,-0.7
3.476e-03,-0.6,-0.54
3.478e-03,-0.6,-0.68
3.480e-03,-0.56,-0.52
3.482e-03,-0.62,-0.72
3.484e-03,-0.62,-0.54
3.486e-03,-0.64,-0.68
3.488e-03,-0.54,-0.52
3.490e-03,-0.62,-0.72
3.492e-03,-0.58,-0.54
3.494e-03,-0.68,-0.76
3.495e-03,-0.64,-0.56
3.497e-03,-0.62,-0.76
3.499e-03,-0.68,-0.6
3.501e-03,-0.64,-0.8
3.503e-03,-0.78,-0.62
3.505e-03,-0.68,-0.8
3.507e-03,-0.74,-0.66
3.509e-03,-0.7,-0.84
3.511e-03,-0.82,-0.68
3.513e-03,-0.68,-0.78
3.515e-03,-0.72,-0.62
3.517e-03,-0.64,-0.72
3.519e-03,-0.64,-0.56
3.520e-03,-0.68,-0.88
3.522e-03,-0.74,-0.62
3.524e-03,-0.82,-0.86
3.526e-03,-0.68,-0.64
3.528e-03,-0.72,-0.8
3.530e-03,-0.64,-0.6
3.532e-03,-0.82,-0.86
3.534e-03,-0.78,-0.7
3.536e-03,-0.78,-0.82
3.538e-03,-0.7,-0.64
3.540e-03,-0.72,-0.9
3.542e-03,-0.74,-0.64
3.544e-03,-0.86,-0.9
3.545e-03,-0.84,-0.78
3.547e-03,-0.82,-0.88
3.549e-03,-0.76,-0.7
3.551e-03,-0.78,-0.82
3.553e-03,-0.68,-0.62
3.555e-03,-0.68,-0.84
3.557e-03,-0.82,-0.66
3.559e-03,-0.72,-0.88
3.561e-03,-0.78,-0.7
3.563e-03,-0.8,-0.86
3.565e-03,-0.72,-0.62
3.567e-03,-0.7,-0.8
3.568e-03,-0.68,-0.66
3.570e-03,-0.72,-0.78
3.572e-03,-0.72,-0.64
3.574e-03,-0.7,-0.78
3.576e-03,-0.68,-0.62
3.578e-03,-0.76,-0.9
3.580e-03,-0.76,-0.68
3.582e-03,-0.88,-0.92
3.584e-03,-0.76,-0.74
3.586e-03,-0.84,-0.88
3.588e-03,-0.74,-0.68
3.590e-03,-0.78,-0.84
3.592e-03,-0.76,-0.7
3.593e-03,-0.8,-0.84
3.595e-03,-0.78,-0.72
3.597e-03,-0.72,-0.82
3.599e-03,-0.74,-0.58
3.601e-03,-0.6,-0.7
3.603e-03,-0.6,-0.54
3.605e-03,-0.6,-0.8
3.607e-03,-0.76,-0.56
3.609e-03,-0.72,-0.8
3.611e-03,-0.8,-0.64
3.613e-03,-0.66,-0.78
3.615e-03,-0.76,-0.62
3.616e-03,-0.66,-0.86
3.618e-03,-0.78,-0.64
3.620e-03,-0.78,-0.84
3.622e-03,-0.72,-0.66
3.624e-03,-0.72,-0.8
3.626e-03,-0.7,-0.6
3.628e-03,-0.7,-0.74
3.630e-03,-0.64,-0.6
3.632e-03,-0.7,-0.74
3.634e-03,-0.64,-0.58
3.636e-03,-0.64,-0.74
3.638e-03,-0.66,-0.58
3.640e-03,-0.6,-0.72
3.641e-03,-0.66,-0.54
3.643e-03,-0.6,-0.74
3.645e-03,-0.68,-0.56
3.647e-03,-0.68,-0.88
3.649e-03,-0.8,-0.64
3.651e-03,-0.8,-0.92
3.653e-03,-0.88,-0.78
3.655e-03,-0.78,-0.88
3.657e-03,-0.74,-0.64
3.659e-03,-0.68,-0.82
3.661e-03,-0.74,-0.66
3.663e-03,-0.74,-0.86
3.664e-03,-0.76,-0.68
3.666e-03,-0.7,-0.76
3.668e-03,-0.64,-0.6
3.670e-03,-0.66,-0.68
3.672e-03,-0.54,-0.52
3.674e-03,-0.66,-0.76
3.676e-03,-0.64,-0.56
3.678e-03,-0.64,-0.8
3.680e-03,-0.7,-0.58
3.682e-03,-0.78,-0.84
3.684e-03,-0.72,-0.68
3.686e-03,-0.8,-0.9
3.688e-03,-0.8,-0.72
3.689e-03,-0.82,-0.86
3.691e-03,-0.8,-0.72
3.693e-03,-0.82,-0.9
3.695e-03,-0.76,-0.7
3.697e-03,-0.74,-0.82
3.699e-03,-0.72,-0.62
3.701e-03,-0.62,-0.68
3.703e-03,-0.6,-0.5
3.705e-03,-0.54,-0.7
3.707e-03,-0.64,-0.52
3.709e-03,-0.64,-0.88
3.711e-03,-0.86,-0.6
3.712e-03,-0.78,-0.86
3.714e-03,-0.78,-0.72
3.716e-03,-0.76,-0.86
3.718e-03,-0.78,-0.7
3.720e-03,-0.78,-0.84
3.722e-03,-0.66,-0.58
3.724e-03,-0.64,-0.72
3.726e-03,-0.6,-0.56
3.728e-03,-0.72,-0.76
3.730e-03,-0.62,-0.6
3.732e-03,-0.78,-0.82
3.734e-03,-0.68,-0.64
3.736e-03,-0.74,-0.86
3.737e-03,-0.76,-0.68
3.739e-03,-0.8,-0.9
3.741e-03,-0.78,-0.7
3.743e-03,-0.74,-0.82
3.745e-03,-0.76,-0.68
3.747e-03,-0.74,-0.8
3.749e-03,-0.68,-0.58
3.751e-03,-0.6,-0.72
3.753e-03,-0.66,-0.56
3.755e-03,-0.58,-0.68
3.757e-03,-0.62,-0.54
3.759e-03,-0.6,-0.68
3.760e-03,-0.6,-0.52
3.762e-03,-0.62,-0.7
3.764e-03,-0.64,-0.58
3.766e-03,-0.66,-0.76
3.768e-03,-0.64,-0.6
3.770e-03,-0.76,-0.86
3.772e-03,-0.76,-0.66
3.774e-03,-0.76,-0.78
3.776e-03,-0.66,-0.6
3.778e-03,-0.68,-0.7
3.780e-03,-0.52,-0.48
3.782e-03,-0.62,-0.66
3.784e-03,-0.58,-0.48
3.785e-03,-0.6,-0.8
3.787e-03,-0.68,-0.54
3.789e-03,-0.76,-0.82
3.791e-03,-0.76,-0.7
3.793e-03,-0.74,-0.84
3.795e-03,-0.72,-0.68
3.797e-03,-0.76,-0.84
3.799e-03,-0.72,-0.6
3.801e-03,-0.58,-0.72
3.803e-03,-0.66,-0.56
3.805e-03,-0.66,-0.82
3.807e-03,-0.78,-0.62
3.808e-03,-0.64,-0.82
3.810e-03,-0.76,-0.62
3.812e-03,-0.74,-0.84
3.814e-03,-0.72,-0.64
3.816e-03,-0.7,-0.84
3.818e-03,-0.7,-0.66
3.820e-03,-0.8,-0.84
3.822e-03,-0.7,-0.6
3.824e-03,-0.7,-0.72
3.826e-03,-0.6,-0.58
3.828e-03,-0.7,-0.78
3.830e-03,-0.68,-0.64
3.832e-03,-0.76,-0.86
3.833e-03,-0.78,-0.7
3.835e-03,-0.76,-0.82
3.837e-03,-0.7,-0.64
3.839e-03,-0.68,-0.78
3.841e-03,-0.72,-0.62
3.843e-03,-0.66,-0.86
3.845e-03,-0.78,-0.62
3.847e-03,-0.72,-0.8
3.849e-03,-0.72,-0.64
3.851e-03,-0.7,-0.82
3.853e-03,-0.76,-0.66
3.855e-03,-0.74,-0.92
3.856e-03,-0.86,-0.7
3.858e-03,-0.84,-0.92
3.860e-03,-0.82,-0.72
3.862e-03,-0.74,-0.82
3.864e-03,-0.76,-0.66
3.866e-03,-0.7,-0.78
3.868e-03,-0.66,-0.62
3.870e-03,-0.76,-0.78
3.872e-03,-0.68,-0.56
3.874e-03,-0.62,-0.66
3.876e-03,-0.52,-0.5
3.878e-03,-0.58,-0.72
3.880e-03,-0.64,-0.52
3.881e-03,-0.7,-0.84
3.883e-03,-0.7,-0.62
3.885e-03,-0.82,-0.92
3.887e-03,-0.86,-0.74
3.889e-03,-0.84,-0.9
3.891e-03,-0.8,-0.74
3.893e-03,-0.8,-0.96
3.895e-03,-0.86,-0.72
3.897e-03,-0.88,-0.96
3.899e-03,-0.88,-0.62
3.901e-03,-0.64,-0.82
3.903e-03,-0.78,-0.64
3.904e-03,-0.68,-0.82
3.906e-03,-0.76,-0.68
3.908e-03,-0.72,-0.84
3.910e-03,-0.76,-0.7
3.912e-03,-0.72,-0.8
3.914e-03,-0.68,-0.62
3.916e-03,-0.72,-0.84
3.918e-03,-0.76,-0.62
3.920e-03,-0.7,-0.8
3.922e-03,-0.7,-0.6
3.924e-03,-0.78,-0.8
3.926e-03,-0.58,-0.56
3.928e-03,-0.68,-0.82
3.929e-03,-0.64,-0.6
3.931e-03,-0.76,-0.86
3.933e-03,-0.74,-0.68
3.935e-03,-0.72,-0.78
3.937e-03,-0.68,-0.6
3.939e-03,-0.66,-0.78
3.941e-03,-0.72,-0.6
3.943e-03,-0.64,-0.76
3.945e-03,-0.68,-0.58
3.947e-03,-0.68,-0.76
3.949e-03,-0.68,-0.6
3.951e-03,-0.66,-0.82
3.952e-03,-0.72,-0.62
3.954e-03,-0.72,-0.82
3.956e-03,-0.7,-0.58
3.958e-03,-0.6,-0.74
3.960e-03,-0.68,-0.56
3.962e-03,-0.66,-0.72
3.964e-03,-0.58,-0.48
3.966e-03,-0.56,-0.7
3.968e-03,-0.6,-0.5
3.970e-03,-0.66,-0.76
3.972e-03,-0.64,-0.6
3.974e-03,-0.74,-0.82
3.976e-03,-0.72,-0.68
3.977e-03,-0.78,-0.82
3.979e-03,-0.7,-0.64
3.981e-03,-0.78,-0.8
3.983e-03,-0.68,-0.62
3.985e-03,-0.7,-0.74
3.987e-03,-0.66,-0.6
3.989e-03,-0.68,-0.74
3.991e-03,-0.66,-0.6
3.993e-03,-0.66,-0.78
3.995e-03,-0.74,-0.62
3.997e-03,-0.66,-0.76
3.999e-03,-0.7,-0.6
4.000e-03,-0.6,-0.74
4.002e-03,-0.7,-0.6
4.004e-03,-0.62,-0.76
4.006e-03,-0.68,-0.6
4.008e-03,-0.62,-0.72
4.010e-03,-0.62,-0.56
4.012e-03,-0.66,-0.78
4.014e-03,-0.68,-0.62
4.016e-03,-0.74,-0.78
4.018e-03,-0.66,-0.6
4.020e-03,-0.68,-0.76
4.022e-03,-0.68,-0.6
4.024e-03,-0.7,-0.88
4.025e-03,-0.7,-0.64
4.027e-03,-0.88,-0.9
4.029e-03,-0.82,-0.74
4.031e-03,-0.8,-0.82
4.033e-03,-0.72,-0.64
4.035e-03,-0.72,-0.8
4.037e-03,-0.72,-0.64
4.039e-03,-0.64,-0.74
4.041e-03,-0.6,-0.52
4.043e-03,-0.56,-0.76
4.045e-03,-0.7,-0.54
4.047e-03,-0.66,-0.76
4.048e-03,-0.72,-0.62
4.050e-03,-0.62,-0.76
4.052e-03,-0.68,-0.58
4.054e-03,-0.66,-0.82
4.056e-03,-0.76,-0.62
4.058e-03,-0.72,-0.8
4.060e-03,-0.76,-0.62
4.062e-03,-0.66,-0.72
4.064e-03,-0.62,-0.56
4.066e-03,-0.66,-0.74
4.068e-03,-0.66,-0.56
4.070e-03,-0.64,-0.72
4.072e-03,-0.6,-0.56
4.073e-03,-0.72,-0.82
4.075e-03,-0.74,-0.66
4.077e-03,-0.76,-0.8
4.079e-03,-0.68,-0.66
4.081e-03,-0.74,-0.78
4.083e-03,-0.66,-0.64
4.085e-03,-0.7,-0.8
4.087e-03,-0.74,-0.64
4.089e-03,-0.74,-0.84
4.091e-03,-0.78,-0.68
4.093e-03,-0.74,-0.98
4.095e-03,-0.88,-0.72
4.096e-03,-0.9,-0.96
4.098e-03,-0.84,-0.7
4.100e-03,-0.68,-0.78
4.102e-03,-0.68,-0.56
4.104e-03,-0.56,-0.68
4.106e-03,-0.62,-0.56
4.108e-03,-0.64,-0.84
4.110e-03,-0.76,-0.6
4.112e-03,-0.72,-0.82
4.114e-03,-0.68,-0.64
4.116e-03,-0.72,-0.8
4.118e-03,-0.68,-0.62
4.120e-03,-0.8,-0.9
4.121e-03,-0.78,-0.74
4.123e-03,-0.8,-0.84
4.125e-03,-0.74,-0.7
4.127e-03,-0.8,-0.82
4.129e-03,-0.7,-0.58
4.131e-03,-0.62,-0.68
4.133e-03,-0.56,-0.52
4.135e-03,-0.62,-0.74
4.137e-03,-0.68,-0.56
4.139e-03,-0.6,-0.7
4.141e-03,-0.62,-0.54
4.143e-03,-0.64,-0.78
4.145e-03,-0.68,-0.58
4.146e-03,-0.68,-0.86
4.148e-03,-0.84,-0.68
4.150e-03,-0.76,-0.88
4.152e-03,-0.86,-0.62
4.154e-03,-0.66,-0.78
4.156e-03,-0.74,-0.62
4.158e-03,-0.7,-0.78
4.160e-03,-0.68,-0.62
4.162e-03,-0.68,-0.84
4.164e-03,-0.74,-0.64
4.166e-03,-0.8,-0.84
4.168e-03,-0.72,-0.7
4.169e-03,-0.78,-0.82
4.171e-03,-0.7,-0.66
4.173e-03,-0.76,-0.8
4.175e-03,-0.68,-0.66
4.177e-03,-0.7,-0.76
4.179e-03,-0.62,-0.6
4.181e-03,-0.64,-0.76
4.183e-03,-0.7,-0.6
4.185e-03,-0.64,-0.7
4.187e-03,-0.62,-0.54
4.189e-03,-0.6,-0.78
4.191e-03,-0.74,-0.6
4.193e-03,-0.7,-0.84
4.194e-03,-0.8,-0.68
4.196e-03,-0.76,-0.84
4.198e-03,-0.74,-0.62
4.200e-03,-0.72,-0.88
4.202e-03,-0.82,-0.72
4.204e-03,-0.74,-0.84
4.206e-03,-0.72,-0.64
4.208e-03,-0.7,-0.84
4.210e-03,-0.78,-0.66
4.212e-03,-0.76,-0.82
4.214e-03,-0.68,-0.58
4.216e-03,-0.66,-0.76
4.217e-03,-0.66,-0.58
4.219e-03,-0.66,-0.78
4.221e-03,-0.7,-0.58
4.223e-03,-0.66,-0.86
4.225e-03,-0.72,-0.6
4.227e-03,-0.86,-0.86
4.229e-03,-0.72,-0.7
4.231e-03,-0.8,-0.82
4.233e-03,-0.66,-0.62
4.235e-03,-0.66,-0.82
4.237e-03,-0.72,-0.62
4.239e-03,-0.76,-0.82
4.241e-03,-0.72,-0.62
4.242e-03,-0.66,-0.74
4.244e-03,-0.7,-0.52
4.246e-03,-0.52,-0.76
4.248e-03,-0.68,-0.52
4.250e-03,-0.68,-0.78
4.252e-03,-0.72,-0.64
4.254e-03,-0.68,-0.76
4.256e-03,-0.66,-0.56
4.258e-03,-0.62,-0.74
4.260e-03,-0.68,-0.58
4.262e-03,-0.68,-0.8
4.264e-03,-0.74,-0.62
4.265e-03,-0.72,-0.74
4.267e-03,-0.62,-0.58
4.269e-03,-0.66,-0.74
4.271e-03,-0.6,-0.56
4.273e-03,-0.7,-0.74
4.275e-03,-0.64,-0.6
4.277e-03,-0.68,-0.74
4.279e-03,-0.68,-0.62
4.281e-03,-0.7,-0.76
4.283e-03,-0.68,-0.62
4.285e-03,-0.66,-0.74
4.287e-03,-0.7,-0.6
4.289e-03,-0.62,-0.76
4.290e-03,-0.68,-0.58
4.292e-03,-0.68,-0.76
4.294e-03,-0.72,-0.64
4.296e-03,-0.68,-0.84
4.298e-03,-0.8,-0.66
4.300e-03,-0.76,-0.84
4.302e-03,-0.76,-0.62
4.304e-03,-0.68,-0.8
4.306e-03,-0.76,-0.64
4.308e-03,-0.74,-0.84
4.310e-03,-0.74,-0.64
4.312e-03,-0.7,-0.84
4.313e-03,-0.72,-0.64
4.315e-03,-0.82,-0.84
4.317e-03,-0.7,-0.68
4.319e-03,-0.78,-0.8
4.321e-03,-0.6,-0.56
4.323e-03,-0.62,-0.76
4.325e-03,-0.6,-0.54
4.327e-03,-0.72,-0.84
4.329e-03,-0.78,-0.66
4.331e-03,-0.72,-0.78
4.333e-03,-0.72,-0.58
4.335e-03,-0.6,-0.68
4.337e-03,-0.58,-0.52
4.338e-03,-0.6,-0.8
4.340e-03,-0.7,-0.54
4.342e-03,-0.7,-0.78
4.344e-03,-0.74,-0.64
4.346e-03,-0.66,-0.94
4.348e-03,-0.8,-0.64
4.350e-03,-0.82,-0.9
4.352e-03,-0.72,-0.62
4.354e-03,-0.64,-0.7
4.356e-03,-0.62,-0.56
4.358e-03,-0.64,-0.7
4.360e-03,-0.6,-0.52
4.361e-03,-0.68,-0.74
4.363e-03,-0.64,-0.58
4.365e-03,-0.68,-0.82
4.367e-03,-0.72,-0.62
4.369e-03,-0.82,-0.9
4.371e-03,-0.8,-0.7
4.373e-03,-0.74,-0.86
4.375e-03,-0.7,-0.66
4.377e-03,-0.8,-0.82
4.379e-03,-0.54,-0.5
4.381e-03,-0.62,-0.74
4.383e-03,-0.64,-0.54
4.385e-03,-0.64,-0.86
4.386e-03,-0.8,-0.64
4.388e-03,-0.78,-0.9
4.390e-03,-0.86,-0.76
4.392e-03,-0.82,-0.9
4.394e-03,-0.82,-0.68
4.396e-03,-0.7,-0.84
4.398e-03,-0.8,-0.68
4.400e-03,-0.76,-0.94
4.402e-03,-0.86,-0.72
4.404e-03,-0.86,-0.92
4.406e-03,-0.82,-0.7
4.408e-03,-0.76,-0.84
4.409e-03,-0.76,-0.68
4.411e-03,-0.74,-0.9
4.413e-03,-0.78,-0.7
4.415e-03,-0.84,-0.86
4.417e-03,-0.74,-0.64
4.419e-03,-0.7,-0.74
4.421e-03,-0.58,-0.54
4.423e-03,-0.66,-0.72
4.425e-03,-0.64,-0.54
4.427e-03,-0.6,-0.74
4.429e-03,-0.62,-0.56
4.431e-03,-0.68,-0.84
4.433e-03,-0.72,-0.64
4.434e-03,-0.78,-0.86
4.436e-03,-0.78,-0.7
4.438e-03,-0.8,-0.94
4.440e-03,-0.92,-0.76
4.442e-03,-0.78,-0.9
4.444e-03,-0.86,-0.72
4.446e-03,-0.72,-0.82
4.448e-03,-0.76,-0.68
4.450e-03,-0.68,-0.76
4.452e-03,-0.66,-0.6
4.454e-03,-0.68,-0.8
4.456e-03,-0.68,-0.62
4.457e-03,-0.76,-0.82
4.459e-03,-0.7,-0.68
4.461e-03,-0.76,-0.86
4.463e-03,-0.78,-0.7
4.465e-03,-0.8,-0.84
4.467e-03,-0.72,-0.68
4.469e-03,-0.76,-0.8
4.471e-03,-0.66,-0.58
4.473e-03,-0.64,-0.7
4.475e-03,-0.6,-0.56
4.477e-03,-0.66,-0.82
4.479e-03,-0.7,-0.58
4.481e-03,-0.76,-0.86
4.482e-03,-0.8,-0.68
4.484e-03,-0.68,-0.76
4.486e-03,-0.68,-0.58
4.488e-03,-0.64,-0.76
4.490e-03,-0.7,-0.58
4.492e-03,-0.6,-0.82
4.494e-03,-0.72,-0.58
4.496e-03,-0.72,-0.8
4.498e-03,-0.68,-0.56
4.500e-03,-0.6,-0.74
4.502e-03,-0.66,-0.56
4.504e-03,-0.66,-0.76
4.505e-03,-0.68,-0.62
4.507e-03,-0.68,-0.88
4.509e-03,-0.78,-0.64
4.511e-03,-0.8,-0.84
4.513e-03,-0.72,-0.68
4.515e-03,-0.76,-0.78
4.517e-03,-0.68,-0.64
4.519e-03,-0.72,-0.84
4.521e-03,-0.72,-0.66
4.523e-03,-0.8,-0.84
4.525e-03,-0.72,-0.66
4.527e-03,-0.72,-0.84
4.529e-03,-0.76,-0.7
4.530e-03,-0.78,-0.84
4.532e-03,-0.74,-0.66
4.534e-03,-0.68,-0.78
4.536e-03,-0.7,-0.6
4.538e-03,-0.62,-0.74
4.540e-03,-0.72,-0.6
4.542e-03,-0.62,-0.72
4.544e-03,-0.68,-0.58
4.546e-03,-0.6,-0.74
4.548e-03,-0.64,-0.58
4.550e-03,-0.66,-0.82
4.552e-03,-0.76,-0.62
4.553e-03,-0.76,-0.8
4.555e-03,-0.72,-0.68
4.557e-03,-0.76,-0.8
4.559e-03,-0.68,-0.6
4.561e-03,-0.68,-0.74
4.563e-03,-0.64,-0.58
4.565e-03,-0.66,-0.72
4.567e-03,-0.62,-0.56
4.569e-03,-0.64,-0.74
4.571e-03,-0.6,-0.54
4.573e-03,-0.68,-0.78
4.575e-03,-0.7,-0.62
4.577e-03,-0.7,-0.74
4.578e-03,-0.66,-0.6
4.580e-03,-0.66,-0.76
4.582e-03,-0.68,-0.6
4.584e-03,-0.66,-0.76
4.586e-03,-0.72,-0.64
4.588e-03,-0.66,-0.78
4.590e-03,-0.68,-0.6
4.592e-03,-0.7,-0.8
4.594e-03,-0.74,-0.66
4.596e-03,-0.68,-0.76
4.598e-03,-0.66,-0.5
4.600e-03,-0.52,-0.74
4.601e-03,-0.68,-0.5
4.603e-03,-0.68,-0.84
4.605e-03,-0.68,-0.6
4.607e-03,-0.78,-0.82
4.609e-03,-0.72,-0.68
4.611e-03,-0.76,-0.78
4.613e-03,-0.68,-0.64
4.615e-03,-0.78,-0.8
4.617e-03,-0.66,-0.64
4.619e-03,-0.72,-0.76
4.621e-03,-0.56,-0.52
4.623e-03,-0.64,-0.78
4.625e-03,-0.66,-0.6
4.626e-03,-0.7,-0.84
4.628e-03,-0.78,-0.64
4.630e-03,-0.7,-0.82
4.632e-03,-0.8,-0.64
4.634e-03,-0.62,-0.72
4.636e-03,-0.66,-0.56
4.638e-03,-0.58,-0.7
4.640e-03,-0.64,-0.5
4.642e-03,-0.52,-0.68
4.644e-03,-0.58,-0.46
4.646e-03,-0.62,-0.78
4.648e-03,-0.7,-0.6
4.649e-03,-0.72,-0.84
4.651e-03,-0.78,-0.64
4.653e-03,-0.72,-0.76
4.655e-03,-0.58,-0.56
4.657e-03,-0.66,-0.7
4.659e-03,-0.6,-0.56
4.661e-03,-0.7,-0.82
4.663e-03,-0.7,-0.62
4.665e-03,-0.82,-0.84
4.667e-03,-0.72,-0.68
4.669e-03,-0.8,-0.9
4.671e-03,-0.78,-0.7
4.673e-03,-0.84,-0.86
4.674e-03,-0.7,-0.64
4.676e-03,-0.68,-0.72
4.678e-03,-0.62,-0.54
4.680e-03,-0.62,-0.76
4.682e-03,-0.7,-0.6
4.684e-03,-0.64,-0.88
4.686e-03,-0.72,-0.62
4.688e-03,-0.8,-0.92
4.690e-03,-0.86,-0.72
4.692e-03,-0.72,-0.9
4.694e-03,-0.78,-0.7
4.696e-03,-0.82,-0.9
4.697e-03,-0.76,-0.7
4.699e-03,-0.78,-0.84
4.701e-03,-0.74,-0.7
4.703e-03,-0.78,-0.82
4.705e-03,-0.72,-0.68
4.707e-03,-0.74,-0.84
4.709e-03,-0.74,-0.66
4.711e-03,-0.76,-0.78
4.713e-03,-0.68,-0.58
4.715e-03,-0.68,-0.78
4.717e-03,-0.66,-0.6
4.719e-03,-0.68,-0.76
4.721e-03,-0.68,-0.62
4.722e-03,-0.68,-0.76
4.724e-03,-0.7,-0.58
4.726e-03,-0.62,-0.76
4.728e-03,-0.68,-0.54
4.730e-03,-0.6,-0.86
4.732e-03,-0.84,-0.6
4.734e-03,-0.74,-0.84
4.736e-03,-0.78,-0.66
4.738e-03,-0.72,-0.84
4.740e-03,-0.78,-0.64
4.742e-03,-0.66,-0.74
4.744e-03,-0.66,-0.56
4.745e-03,-0.68,-0.88
4.747e-03,-0.82,-0.64
4.749e-03,-0.78,-0.86
4.751e-03,-0.8,-0.72
4.753e-03,-0.82,-0.88
4.755e-03,-0.78,-0.7
4.757e-03,-0.78,-0.8
4.759e-03,-0.68,-0.68
4.761e-03,-0.74,-0.8
4.763e-03,-0.7,-0.64
4.765e-03,-0.76,-0.82
4.767e-03,-0.74,-0.62
4.769e-03,-0.7,-0.78
4.770e-03,-0.7,-0.62
4.772e-03,-0.74,-0.88
4.774e-03,-0.74,-0.68
4.776e-03,-0.82,-0.86
4.778e-03,-0.74,-0.68
4.780e-03,-0.68,-0.74
4.782e-03,-0.64,-0.52
4.784e-03,-0.56,-0.74
4.786e-03,-0.7,-0.54
4.788e-03,-0.58,-0.82
4.790e-03,-0.76,-0.58
4.792e-03,-0.72,-0.8
4.794e-03,-0.72,-0.58
4.795e-03,-0.6,-0.68
4.797e-03,-0.58,-0.52
4.799e-03,-0.58,-0.72
4.801e-03,-0.62,-0.54
4.803e-03,-0.68,-0.8
4.805e-03,-0.64,-0.6
4.807e-03,-0.78,-0.82
4.809e-03,-0.72,-0.68
4.811e-03,-0.76,-0.82
4.813e-03,-0.68,-0.64
4.815e-03,-0.8,-0.92
4.817e-03,-0.78,-0.72
4.818e-03,-0.9,-0.92
4.820e-03,-0.86,-0.78
4.822e-03,-0.88,-0.92
4.824e-03,-0.78,-0.68
4.826e-03,-0.7,-0.76
4.828e-03,-0.64,-0.56
4.830e-03,-0.66,-0.74
4.832e-03,-0.68,-0.56
4.834e-03,-0.6,-0.66
4.836e-03,-0.6,-0.52
4.838e-03,-0.58,-0.74
4.840e-03,-0.7,-0.54
4.842e-03,-0.66,-0.8
4.843e-03,-0.68,-0.58
4.845e-03,-0.72,-0.78
4.847e-03,-0.72,-0.64
4.849e-03,-0.72,-0.78
4.851e-03,-0.66,-0.6
4.853e-03,-0.68,-0.76
4.855e-03,-0.66,-0.62
4.857e-03,-0.74,-0.78
4.859e-03,-0.62,-0.58
4.861e-03,-0.66,-0.78
4.863e-03,-0.64,-0.58
4.865e-03,-0.7,-0.84
4.866e-03,-0.64,-0.6
4.868e-03,-0.78,-0.84
4.870e-03,-0.78,-0.68
4.872e-03,-0.74,-0.9
4.874e-03,-0.78,-0.7
4.876e-03,-0.84,-0.88
4.878e-03,-0.84,-0.74
4.880e-03,-0.76,-0.82
4.882e-03,-0.76,-0.66
4.884e-03,-0.72,-0.84
4.886e-03,-0.78,-0.7
4.888e-03,-0.7,-0.8
4.890e-03,-0.74,-0.64
4.891e-03,-0.74,-0.82
4.893e-03,-0.72,-0.68
4.895e-03,-0.72,-0.82
4.897e-03,-0.74,-0.68
4.899e-03,-0.78,-0.84
4.901e-03,-0.7,-0.66
4.903e-03,-0.72,-0.76
4.905e-03,-0.62,-0.56
4.907e-03,-0.68,-0.7
4.909e-03,-0.6,-0.58
4.911e-03,-0.68,-0.7
4.913e-03,-0.6,-0.52
4.914e-03,-0.62,-0.68
4.916e-03,-0.6,-0.54
4.918e-03,-0.64,-0.72
4.920e-03,-0.62,-0.54
4.922e-03,-0.68,-0.76
4.924e-03,-0.72,-0.6
4.926e-03,-0.68,-0.84
4.928e-03,-0.7,-0.62
4.930e-03,-0.76,-0.86
4.932e-03,-0.78,-0.7
4.934e-03,-0.7,-0.78
4.936e-03,-0.7,-0.58
4.938e-03,-0.58,-0.66
4.939e-03,-0.64,-0.5
4.941e-03,-0.58,-0.76
4.943e-03,-0.68,-0.56
4.945e-03,-0.72,-0.78
4.947e-03,-0.66,-0.52
4.949e-03,-0.62,-0.66
4.951e-03,-0.56,-0.46
4.953e-03,-0.58,-0.74
4.955e-03,-0.6,-0.54
4.957e-03,-0.7,-0.74
4.959e-03,-0.64,-0.6
4.961e-03,-0.72,-0.76
4.962e-03,-0.66,-0.64
4.964e-03,-0.72,-0.78
4.966e-03,-0.68,-0.64
4.968e-03,-0.68,-0.74
4.970e-03,-0.6,-0.56
4.972e-03,-0.6,-0.76
4.974e-03,-0.6,-0.52
4.976e-03,-0.68,-0.82
4.978e-03,-0.7,-0.6
4.980e-03,-0.76,-0.88
4.982e-03,-0.82,-0.68
4.984e-03,-0.7,-0.8
4.986e-03,-0.78,-0.66
4.987e-03,-0.66,-0.76
4.989e-03,-0.68,-0.62
4.991e-03,-0.66,-0.84
4.993e-03,-0.72,-0.64
4.995e-03,-0.76,-0.82
4.997e-03,-0.7,-0.64
4.999e-03,-0.78,-0.86
5.001e-03,-0.72,-0.7
5.003e-03,-0.84,-0.86
5.005e-03,-0.76,-0.7
5.007e-03,-0.82,-0.92
5.009e-03,-0.78,-0.68
5.010e-03,-0.76,-0.86
5.012e-03,-0.68,-0.64
5.014e-03,-0.84,-0.86
5.016e-03,-0.76,-0.68
5.018e-03,-0.78,-0.84
5.020e-03,-0.78,-0.7
5.022e-03,-0.74,-0.86
5.024e-03,-0.78,-0.68
5.026e-03,-0.72,-0.78
5.028e-03,-0.72,-0.62
5.030e-03,-0.68,-0.84
5.032e-03,-0.76,-0.62
5.034e-03,-0.74,-0.9
5.035e-03,-0.82,-0.72
5.037e-03,-0.8,-0.88
5.039e-03,-0.74,-0.68
5.041e-03,-0.7,-0.78
5.043e-03,-0.68,-0.62
5.045e-03,-0.66,-0.74
5.047e-03,-0.66,-0.54
5.049e-03,-0.6,-0.7
5.051e-03,-0.62,-0.58
5.053e-03,-0.66,-0.78
5.055e-03,-0.66,-0.6
5.057e-03,-0.76,-0.78
5.058e-03,-0.62,-0.58
5.060e-03,-0.7,-0.8
5.062e-03,-0.7,-0.6
5.064e-03,-0.66,-0.78
5.066e-03,-0.7,-0.58
5.068e-03,-0.7,-0.76
5.070e-03,-0.66,-0.6
5.072e-03,-0.68,-0.74
5.074e-03,-0.64,-0.56
5.076e-03,-0.56,-0.76
5.078e-03,-0.72,-0.54
5.080e-03,-0.62,-0.72
5.082e-03,-0.66,-0.54
5.083e-03,-0.56,-0.78
5.085e-03,-0.7,-0.54
5.087e-03,-0.7,-0.82
5.089e-03,-0.78,-0.66
5.091e-03,-0.74,-0.82
5.093e-03,-0.78,-0.68
5.095e-03,-0.74,-0.8
5.097e-03,-0.68,-0.66
5.099e-03,-0.76,-0.82
5.101e-03,-0.72,-0.64
5.103e-03,-0.72,-0.82
5.105e-03,-0.72,-0.64
5.106e-03,-0.8,-0.84
5.108e-03,-0.7,-0.62
5.110e-03,-0.7,-0.72
5.112e-03,-0.58,-0.54
5.114e-03,-0.64,-0.74
5.116e-03,-0.68,-0.58
5.118e-03,-0.7,-0.78
5.120e-03,-0.72,-0.64
5.122e-03,-0.66,-0.74
5.124e-03,-0.66,-0.6
5.126e-03,-0.64,-0.76
5.128e-03,-0.68,-0.56
5.130e-03,-0.68,-0.78
5.131e-03,-0.76,-0.64
5.133e-03,-0.7,-0.86
5.135e-03,-0.8,-0.68
5.137e-03,-0.74,-0.84
5.139e-03,-0.78,-0.66
5.141e-03,-0.7,-0.78
5.143e-03,-0.7,-0.64
5.145e-03,-0.7,-0.76
5.147e-03,-0.68,-0.58
5.149e-03,-0.64,-0.78
5.151e-03,-0.64,-0.56
5.153e-03,-0.74,-0.82
5.154e-03,-0.68,-0.66
5.156e-03,-0.76,-0.78
5.158e-03,-0.58,-0.56
5.160e-03,-0.66,-0.86
5.162e-03,-0.74,-0.6
5.164e-03,-0.8,-0.86
5.166e-03,-0.74,-0.7
5.168e-03,-0.72,-0.78
5.170e-03,-0.62,-0.56
5.172e-03,-0.64,-0.7
5.174e-03,-0.6,-0.52
5.176e-03,-0.62,-0.72
5.178e-03,-0.64,-0.52
5.179e-03,-0.54,-0.72
5.181e-03,-0.7,-0.54
5.183e-03,-0.6,-0.74
5.185e-03,-0.68,-0.56
5.187e-03,-0.66,-0.78
5.189e-03,-0.76,-0.62
5.191e-03,-0.7,-0.76
5.193e-03,-0.66,-0.56
5.195e-03,-0.62,-0.7
5.197e-03,-0.6,-0.56
5.199e-03,-0.62,-0.74
5.201e-03,-0.62,-0.54
5.202e-03,-0.74,-0.82
5.204e-03,-0.72,-0.68
5.206e-03,-0.82,-0.88
5.208e-03,-0.8,-0.68
5.210e-03,-0.76,-0.84
5.212e-03,-0.76,-0.66
5.214e-03,-0.76,-0.9
5.216e-03,-0.72,-0.66
5.218e-03,-0.86,-1
5.220e-03,-0.92,-0.82
5.222e-03,-0.9,-0.96
5.224e-03,-0.78,-0.72
5.226e-03,-0.82,-0.9
5.227e-03,-0.86,-0.74
5.229e-03,-0.76,-0.84
5.231e-03,-0.8,-0.62
5.233e-03,-0.62,-0.8
5.235e-03,-0.72,-0.6
5.237e-03,-0.66,-0.74
5.239e-03,-0.64,-0.6
5.241e-03,-0.7,-0.8
5.243e-03,-0.74,-0.64
5.245e-03,-0.74,-0.78
5.247e-03,-0.68,-0.62
5.249e-03,-0.7,-0.78
5.250e-03,-0.68,-0.62
5.252e-03,-0.72,-0.78
5.254e-03,-0.62,-0.6
5.256e-03,-0.76,-0.8
5.258e-03,-0.64,-0.56
5.260e-03,-0.6,-0.72
5.262e-03,-0.58,-0.52
5.264e-03,-0.68,-0.7
5.266e-03,-0.6,-0.56
5.268e-03,-0.6,-0.68
5.270e-03,-0.62,-0.54
5.272e-03,-0.54,-0.68
5.274e-03,-0.56,-0.48
5.275e-03,-0.6,-0.72
5.277e-03,-0.68,-0.58
5.279e-03,-0.62,-0.76
5.281e-03,-0.72,-0.6
5.283e-03,-0.68,-0.84
5.285e-03,-0.72,-0.6
5.287e-03,-0.78,-0.84
5.289e-03,-0.78,-0.68
5.291e-03,-0.72,-0.82
5.293e-03,-0.76,-0.66
5.295e-03,-0.74,-0.78
5.297e-03,-0.68,-0.62
5.298e-03,-0.68,-0.8
5.300e-03,-0.7,-0.64
5.302e-03,-0.82,-0.84
5.304e-03,-0.72,-0.66
5.306e-03,-0.78,-0.82
5.308e-03,-0.68,-0.62
5.310e-03,-0.7,-0.74
5.312e-03,-0.62,-0.58
5.314e-03,-0.68,-0.76
5.316e-03,-0.66,-0.54
5.318e-03,-0.56,-0.76
5.320e-03,-0.64,-0.52
5.322e-03,-0.68,-0.8
5.323e-03,-0.74,-0.66
5.325e-03,-0.66,-0.78
5.327e-03,-0.74,-0.64
5.329e-03,-0.66,-0.76
5.331e-03,-0.7,-0.6
5.333e-03,-0.66,-0.78
5.335e-03,-0.64,-0.54
5.337e-03,-0.58,-0.84
5.339e-03,-0.7,-0.54
5.341e-03,-0.78,-0.88
5.343e-03,-0.78,-0.68
5.345e-03,-0.76,-0.8
5.346e-03,-0.7,-0.66
5.348e-03,-0.74,-0.76
5.350e-03,-0.6,-0.58
5.352e-03,-0.66,-0.8
5.354e-03,-0.7,-0.6
5.356e-03,-0.78,-0.88
5.358e-03,-0.74,-0.68
5.360e-03,-0.84,-0.86
5.362e-03,-0.76,-0.68
5.364e-03,-0.76,-0.84
5.366e-03,-0.76,-0.68
5.368e-03,-0.72,-0.88
5.370e-03,-0.74,-0.66
5.371e-03,-0.8,-0.9
5.373e-03,-0.84,-0.7
5.375e-03,-0.7,-0.82
5.377e-03,-0.76,-0.66
5.379e-03,-0.72,-0.82
5.381e-03,-0.74,-0.66
5.383e-03,-0.76,-0.9
5.385e-03,-0.84,-0.72
5.387e-03,-0.76,-0.82
5.389e-03,-0.74,-0.66
5.391e-03,-0.7,-0.78
5.393e-03,-0.72,-0.64
5.395e-03,-0.76,-0.82
5.396e-03,-0.74,-0.68
5.398e-03,-0.74,-0.82
5.400e-03,-0.72,-0.68
5.402e-03,-0.74,-0.76
5.404e-03,-0.6,-0.56
5.406e-03,-0.7,-0.82
5.408e-03,-0.72,-0.66
5.410e-03,-0.76,-0.86
5.412e-03,-0.78,-0.7
5.414e-03,-0.76,-0.82
5.416e-03,-0.72,-0.62
5.418e-03,-0.66,-0.76
5.419e-03,-0.66,-0.58
5.421e-03,-0.62,-0.7
5.423e-03,-0.62,-0.54
5.425e-03,-0.62,-0.74
5.427e-03,-0.7,-0.6
5.429e-03,-0.62,-0.76
5.431e-03,-0.72,-0.6
5.433e-03,-0.64,-0.86
5.435e-03,-0.74,-0.62
5.437e-03,-0.8,-0.86
5.439e-03,-0.72,-0.64
5.441e-03,-0.74,-0.8
5.443e-03,-0.7,-0.64
5.444e-03,-0.74,-0.8
5.446e-03,-0.68,-0.68
5.448e-03,-0.76,-0.8
5.450e-03,-0.7,-0.66
5.452e-03,-0.76,-0.84
5.454e-03,-0.72,-0.66
5.456e-03,-0.84,-0.94
5.458e-03,-0.82,-0.76
5.460e-03,-0.9,-0.92
5.462e-03,-0.76,-0.72
5.464e-03,-0.8,-0.86
5.466e-03,-0.8,-0.7
5.467e-03,-0.72,-0.82
5.469e-03,-0.74,-0.64
5.471e-03,-0.72,-0.88
5.473e-03,-0.86,-0.68
5.475e-03,-0.76,-0.84
5.477e-03,-0.82,-0.7
5.479e-03,-0.72,-0.84
5.481e-03,-0.82,-0.7
5.483e-03,-0.72,-0.8
5.485e-03,-0.72,-0.66
5.487e-03,-0.7,-0.82
5.489e-03,-0.72,-0.64
5.491e-03,-0.78,-0.82
5.492e-03,-0.7,-0.66
5.494e-03,-0.72,-0.8
5.496e-03,-0.74,-0.66
5.498e-03,-0.8,-0.88
5.500e-03,-0.8,-0.72
5.502e-03,-0.8,-0.88
5.504e-03,-0.72,-0.7
5.506e-03,-0.84,-0.88
5.508e-03,-0.78,-0.64
5.510e-03,-0.68,-0.8
5.512e-03,-0.72,-0.64
5.514e-03,-0.74,-0.88
5.515e-03,-0.76,-0.66
5.517e-03,-0.7,-0.88
5.519e-03,-0.82,-0.68
5.521e-03,-0.76,-0.82
5.523e-03,-0.78,-0.7
5.525e-03,-0.72,-0.84
5.527e-03,-0.82,-0.7
5.529e-03,-0.72,-0.8
5.531e-03,-0.76,-0.64
5.533e-03,-0.68,-0.76
5.535e-03,-0.7,-0.56
5.537e-03,-0.6,-0.7
5.539e-03,-0.62,-0.56
5.540e-03,-0.66,-0.78
5.542e-03,-0.66,-0.6
5.544e-03,-0.78,-0.78
5.546e-03,-0.7,-0.62
5.548e-03,-0.72,-0.74
5.550e-03,-0.6,-0.5
5.552e-03,-0.6,-0.66
5.554e-03,-0.58,-0.5
5.556e-03,-0.66,-0.72
5.558e-03,-0.64,-0.56
5.560e-03,-0.68,-0.86
5.562e-03,-0.78,-0.62
5.563e-03,-0.8,-0.86
5.565e-03,-0.76,-0.7
5.567e-03,-0.76,-0.8
5.569e-03,-0.72,-0.58
5.571e-03,-0.6,-0.76
5.573e-03,-0.7,-0.58
5.575e-03,-0.68,-0.8
5.577e-03,-0.76,-0.64
5.579e-03,-0.68,-0.84
5.581e-03,-0.8,-0.64
5.583e-03,-0.72,-0.8
5.585e-03,-0.72,-0.66
5.587e-03,-0.72,-0.84
5.588e-03,-0.74,-0.66
5.590e-03,-0.74,-0.78
5.592e-03,-0.7,-0.58
5.594e-03,-0.66,-0.78
5.596e-03,-0.66,-0.58
5.598e-03,-0.76,-0.82
5.600e-03,-0.7,-0.66
5.602e-03,-0.8,-0.86
5.604e-03,-0.76,-0.7
5.606e-03,-0.76,-0.84
5.608e-03,-0.74,-0.68
5.610e-03,-0.78,-0.86
5.611e-03,-0.8,-0.68
5.613e-03,-0.7,-0.76
5.615e-03,-0.7,-0.6
5.617e-03,-0.64,-0.86
5.619e-03,-0.74,-0.62
5.621e-03,-0.76,-0.86
5.623e-03,-0.78,-0.6
5.625e-03,-0.6,-0.84
5.627e-03,-0.72,-0.58
5.629e-03,-0.78,-0.86
5.631e-03,-0.76,-0.66
5.633e-03,-0.7,-0.8
5.635e-03,-0.74,-0.66
5.636e-03,-0.74,-0.82
5.638e-03,-0.74,-0.66
5.640e-03,-0.76,-0.8
5.642e-03,-0.68,-0.54
5.644e-03,-0.6,-0.68
5.646e-03,-0.54,-0.52
5.648e-03,-0.66,-0.7
5.650e-03,-0.56,-0.5
5.652e-03,-0.6,-0.76
5.654e-03,-0.64,-0.54
5.656e-03,-0.64,-0.8
5.658e-03,-0.62,-0.58
5.659e-03,-0.74,-0.8
5.661e-03,-0.72,-0.62
5.663e-03,-0.7,-0.8
5.665e-03,-0.74,-0.6
5.667e-03,-0.64,-0.76
5.669e-03,-0.64,-0.58
5.671e-03,-0.68,-0.76
5.673e-03,-0.72,-0.62
5.675e-03,-0.66,-0.82
5.677e-03,-0.76,-0.62
5.679e-03,-0.62,-0.78
5.681e-03,-0.64,-0.58
5.683e-03,-0.72,-0.92
5.684e-03,-0.86,-0.66
5.686e-03,-0.86,-0.9
5.688e-03,-0.78,-0.72
5.690e-03,-0.78,-0.8
5.692e-03,-0.64,-0.6
5.694e-03,-0.7,-0.72
5.696e-03,-0.62,-0.58
5.698e-03,-0.68,-0.82
5.700e-03,-0.62,-0.6
5.702e-03,-0.82,-0.9
5.704e-03,-0.8,-0.72
5.706e-03,-0.86,-0.92
5.707e-03,-0.84,-0.78
5.709e-03,-0.86,-0.92
5.711e-03,-0.82,-0.72
5.713e-03,-0.76,-0.82
5.715e-03,-0.76,-0.62
5.717e-03,-0.62,-0.72
5.719e-03,-0.7,-0.58
5.721e-03,-0.58,-0.76
5.723e-03,-0.68,-0.56
5.725e-03,-0.68,-0.78
5.727e-03,-0.74,-0.6
5.729e-03,-0.66,-0.8
5.731e-03,-0.72,-0.62
5.732e-03,-0.76,-0.88
5.734e-03,-0.82,-0.7
5.736e-03,-0.84,-0.9
5.738e-03,-0.78,-0.7
5.740e-03,-0.76,-0.84
5.742e-03,-0.74,-0.7
5.744e-03,-0.76,-0.8
5.746e-03,-0.66,-0.66
5.748e-03,-0.78,-0.8
5.750e-03,-0.68,-0.62
5.752e-03,-0.72,-0.9
5.754e-03,-0.82,-0.7
5.755e-03,-0.82,-0.92
5.757e-03,-0.84,-0.76
5.759e-03,-0.82,-0.9
5.761e-03,-0.84,-0.72
5.763e-03,-0.72,-0.8
5.765e-03,-0.74,-0.62
5.767e-03,-0.6,-0.7
5.769e-03,-0.62,-0.5
5.771e-03,-0.56,-0.72
5.773e-03,-0.68,-0.54
5.775e-03,-0.6,-0.76
5.777e-03,-0.7,-0.58
5.779e-03,-0.7,-0.78
5.780e-03,-0.66,-0.62
5.782e-03,-0.66,-0.78
5.784e-03,-0.72,-0.58
5.786e-03,-0.66,-0.8
5.788e-03,-0.72,-0.62
5.790e-03,-0.72,-0.74
5.792e-03,-0.62,-0.58
5.794e-03,-0.66,-0.68
5.796e-03,-0.56,-0.54
5.798e-03,-0.64,-0.74
5.800e-03,-0.6,-0.54
5.802e-03,-0.7,-0.76
5.803e-03,-0.64,-0.6
5.805e-03,-0.74,-0.8
5.807e-03,-0.68,-0.58
5.809e-03,-0.66,-0.8
5.811e-03,-0.74,-0.62
5.813e-03,-0.68,-0.76
5.815e-03,-0.7,-0.6
5.817e-03,-0.62,-0.86
5.819e-03,-0.82,-0.6
5.821e-03,-0.76,-0.86
5.823e-03,-0.78,-0.7
5.825e-03,-0.72,-0.82
5.827e-03,-0.78,-0.7
5.828e-03,-0.74,-0.82
5.830e-03,-0.74,-0.66
5.832e-03,-0.72,-0.76
5.834e-03,-0.7,-0.62
5.836e-03,-0.7,-0.86
5.838e-03,-0.74,-0.62
5.840e-03,-0.8,-0.92
5.842e-03,-0.84,-0.74
5.844e-03,-0.9,-0.98
5.846e-03,-0.82,-0.78
5.848e-03,-0.92,-0.96
5.850e-03,-0.74,-0.7
5.851e-03,-0.72,-0.78
5.853e-03,-0.68,-0.64
5.855e-03,-0.64,-0.82
5.857e-03,-0.76,-0.6
5.859e-03,-0.68,-0.8
5.861e-03,-0.72,-0.64
5.863e-03,-0.7,-0.84
5.865e-03,-0.74,-0.64
5.867e-03,-0.74,-0.84
5.869e-03,-0.76,-0.68
5.871e-03,-0.74,-0.84
5.873e-03,-0.8,-0.7
5.875e-03,-0.74,-0.86
5.876e-03,-0.8,-0.7
5.878e-03,-0.76,-0.84
5.880e-03,-0.78,-0.62
5.882e-03,-0.68,-0.8
5.884e-03,-0.72,-0.62
5.886e-03,-0.74,-0.84
5.888e-03,-0.72,-0.68
5.890e-03,-0.76,-0.82
5.892e-03,-0.72,-0.66
5.894e-03,-0.74,-0.78
5.896e-03,-0.72,-0.64
5.898e-03,-0.72,-0.82
5.899e-03,-0.7,-0.62
5.901e-03,-0.8,-0.82
5.903e-03,-0.72,-0.66
5.905e-03,-0.78,-0.94
5.907e-03,-0.84,-0.7
5.909e-03,-0.8,-0.86
5.911e-03,-0.76,-0.7
5.913e-03,-0.76,-0.84
5.915e-03,-0.72,-0.64
5.917e-03,-0.66,-0.72
5.919e-03,-0.68,-0.54
5.921e-03,-0.58,-0.78
5.923e-03,-0.72,-0.56
5.924e-03,-0.68,-0.82
5.926e-03,-0.74,-0.64
5.928e-03,-0.74,-0.82
5.930e-03,-0.74,-0.68
5.932e-03,-0.78,-0.86
5.934e-03,-0.78,-0.7
5.936e-03,-0.74,-0.78
5.938e-03,-0.68,-0.64
5.940e-03,-0.76,-0.78
5.942e-03,-0.64,-0.58
5.944e-03,-0.7,-0.74
5.946e-03,-0.6,-0.54
5.947e-03,-0.62,-0.76
5.949e-03,-0.6,-0.54
5.951e-03,-0.7,-0.76
5.953e-03,-0.68,-0.62
5.955e-03,-0.64,-0.74
5.957e-03,-0.62,-0.54
5.959e-03,-0.6,-0.7
5.961e-03,-0.66,-0.54
5.963e-03,-0.6,-0.7
5.965e-03,-0.68,-0.56
5.967e-03,-0.62,-0.84
5.969e-03,-0.74,-0.6
5.971e-03,-0.74,-0.92
5.972e-03,-0.88,-0.7
5.974e-03,-0.88,-0.94
5.976e-03,-0.88,-0.74
5.978e-03,-0.78,-0.84
5.980e-03,-0.74,-0.62
5.982e-03,-0.68,-0.82
5.984e-03,-0.66,-0.62
5.986e-03,-0.82,-0.84
5.988e-03,-0.66,-0.64
5.990e-03,-0.74,-0.78
5.992e-03,-0.64,-0.62
5.994e-03,-0.7,-0.78
5.995e-03,-0.6,-0.56
5.997e-03,-0.74,-0.8
5.999e-03,-0.68,-0.58
6.001e-03,-0.64,-0.8
6.003e-03,-0.7,-0.58
6.005e-03,-0.7,-0.78
6.007e-03,-0.7,-0.58
6.009e-03,-0.62,-0.72
6.011e-03,-0.66,-0.58
6.013e-03,-0.62,-0.78
6.015e-03,-0.74,-0.6
6.017e-03,-0.68,-0.82
6.019e-03,-0.8,-0.64
6.020e-03,-0.66,-0.74
6.022e-03,-0.72,-0.6
6.024e-03,-0.6,-0.74
6.026e-03,-0.66,-0.58
6.028e-03,-0.62,-0.8
6.030e-03,-0.72,-0.6
6.032e-03,-0.76,-0.8
6.034e-03,-0.62,-0.6
6.036e-03,-0.7,-0.82
6.038e-03,-0.66,-0.62
6.040e-03,-0.8,-0.92
6.042e-03,-0.78,-0.72
6.044e-03,-0.9,-0.94
6.045e-03,-0.84,-0.76
6.047e-03,-0.8,-0.86
6.049e-03,-0.74,-0.62
6.051e-03,-0.66,-0.76
6.053e-03,-0.7,-0.62
6.055e-03,-0.7,-0.88
6.057e-03,-0.74,-0.66
6.059e-03,-0.8,-0.92
6.061e-03,-0.84,-0.72
6.063e-03,-0.74,-0.86
6.065e-03,-0.8,-0.72
6.067e-03,-0.74,-0.82
6.068e-03,-0.74,-0.62
6.070e-03,-0.64,-0.7
6.072e-03,-0.68,-0.54
6.074e-03,-0.58,-0.78
6.076e-03,-0.72,-0.54
6.078e-03,-0.7,-0.8
6.080e-03,-0.74,-0.64
6.082e-03,-0.76,-0.9
6.084e-03,-0.84,-0.74
6.086e-03,-0.78,-0.84
6.088e-03,-0.68,-0.58
6.090e-03,-0.68,-0.68
6.092e-03,-0.52,-0.5
6.093e-03,-0.62,-0.72
6.095e-03,-0.62,-0.54
6.097e-03,-0.68,-0.7
6.099e-03,-0.56,-0.52
6.101e-03,-0.62,-0.72
6.103e-03,-0.66,-0.58
6.105e-03,-0.64,-0.76
6.107e-03,-0.72,-0.6
6.109e-03,-0.68,-0.84
6.111e-03,-0.76,-0.64
6.113e-03,-0.76,-0.84
6.115e-03,-0.74,-0.64
6.116e-03,-0.66,-0.84
6.118e-03,-0.72,-0.64
6.120e-03,-0.74,-0.82
6.122e-03,-0.7,-0.58
6.124e-03,-0.6,-0.7
6.126e-03,-0.62,-0.54
6.128e-03,-0.64,-0.76
6.130e-03,-0.64,-0.58
6.132e-03,-0.7,-0.76
6.134e-03,-0.62,-0.62
6.136e-03,-0.76,-0.82
6.138e-03,-0.7,-0.64
6.140e-03,-0.72,-0.76
6.141e-03,-0.64,-0.62
6.143e-03,-0.7,-0.76
6.145e-03,-0.66,-0.62
6.147e-03,-0.72,-0.84
6.149e-03,-0.72,-0.62
6.151e-03,-0.72,-0.78
6.153e-03,-0.66,-0.58
6.155e-03,-0.68,-0.76
6.157e-03,-0.68,-0.6
6.159e-03,-0.66,-0.82
6.161e-03,-0.74,-0.62
6.163e-03,-0.72,-0.92
6.164e-03,-0.82,-0.7
6.166e-03,-0.82,-0.9
6.168e-03,-0.82,-0.72
6.170e-03,-0.8,-0.94
6.172e-03,-0.88,-0.78
6.174e-03,-0.84,-0.9
6.176e-03,-0.82,-0.76
6.178e-03,-0.82,-0.86
6.180e-03,-0.74,-0.68
6.182e-03,-0.76,-0.84
6.184e-03,-0.76,-0.7
6.186e-03,-0.8,-0.86
6.188e-03,-0.68,-0.68
6.189e-03,-0.86,-0.94
6.191e-03,-0.84,-0.76
6.193e-03,-0.82,-0.86
6.195e-03,-0.78,-0.74
6.197e-03,-0.8,-0.92
6.199e-03,-0.84,-0.76
6.201e-03,-0.84,-0.9
6.203e-03,-0.82,-0.72
6.205e-03,-0.78,-0.84
6.207e-03,-0.74,-0.64
6.209e-03,-0.64,-0.76
6.211e-03,-0.72,-0.6
6.212e-03,-0.62,-0.72
6.214e-03,-0.58,-0.48
6.216e-03,-0.52,-0.68
6.218e-03,-0.58,-0.48
6.220e-03,-0.62,-0.74
6.222e-03,-0.66,-0.58
6.224e-03,-0.66,-0.84
6.226e-03,-0.72,-0.62
6.228e-03,-0.74,-0.78
6.230e-03,-0.64,-0.48
6.232e-03,-0.58,-0.64
6.234e-03,-0.54,-0.5
6.236e-03,-0.58,-0.72
6.237e-03,-0.52,-0.48
6.239e-03,-0.72,-0.8
6.241e-03,-0.72,-0.64
6.243e-03,-0.76,-0.8
6.245e-03,-0.7,-0.64
6.247e-03,-0.72,-0.74
6.249e-03,-0.62,-0.58
6.251e-03,-0.64,-0.72
6.253e-03,-0.66,-0.58
6.255e-03,-0.64,-0.78
6.257e-03,-0.74,-0.6
6.259e-03,-0.72,-0.78
6.260e-03,-0.68,-0.58
6.262e-03,-0.66,-0.76
6.264e-03,-0.7,-0.54
6.266e-03,-0.56,-0.72
6.268e-03,-0.68,-0.52
6.270e-03,-0.62,-0.76
6.272e-03,-0.72,-0.6
6.274e-03,-0.68,-0.76
6.276e-03,-0.66,-0.56
6.278e-03,-0.62,-0.76
6.280e-03,-0.66,-0.58
6.282e-03,-0.72,-0.74
6.284e-03,-0.62,-0.58
6.285e-03,-0.74,-0.78
6.287e-03,-0.66,-0.62
6.289e-03,-0.74,-0.76
6.291e-03,-0.62,-0.46
6.293e-03,-0.5,-0.66
6.295e-03,-0.54,-0.42
6.297e-03,-0.58,-0.7
6.299e-03,-0.64,-0.54
6.301e-03,-0.6,-0.78
6.303e-03,-0.6,-0.54
6.305e-03,-0.7,-0.86
6.307e-03,-0.8,-0.68
6.308e-03,-0.76,-0.82
6.310e-03,-0.72,-0.64
6.312e-03,-0.68,-0.82
6.314e-03,-0.8,-0.64
6.316e-03,-0.66,-0.78
6.318e-03,-0.74,-0.62
6.320e-03,-0.64,-0.7
6.322e-03,-0.62,-0.54
6.324e-03,-0.64,-0.78
6.326e-03,-0.6,-0.56
6.328e-03,-0.76,-0.82
6.330e-03,-0.72,-0.66
6.332e-03,-0.72,-0.76
6.333e-03,-0.62,-0.58
6.335e-03,-0.68,-0.74
6.337e-03,-0.6,-0.6
6.339e-03,-0.68,-0.74
6.341e-03,-0.62,-0.58
6.343e-03,-0.72,-0.84
6.345e-03,-0.72,-0.62
6.347e-03,-0.82,-0.82
6.349e-03,-0.68,-0.64
6.351e-03,-0.72,-0.84
6.353e-03,-0.78,-0.64
6.355e-03,-0.7,-0.78
6.356e-03,-0.7,-0.6
6.358e-03,-0.6,-0.78
6.360e-03,-0.74,-0.58
6.362e-03,-0.66,-0.84
6.364e-03,-0.78,-0.64
6.366e-03,-0.74,-0.82
6.368e-03,-0.7,-0.62
6.370e-03,-0.64,-0.8
6.372e-03,-0.76,-0.62
6.374e-03,-0.76,-0.84
6.376e-03,-0.76,-0.68
6.378e-03,-0.78,-0.86
6.380e-03,-0.8,-0.72
6.381e-03,-0.8,-0.82
6.383e-03,-0.66,-0.58
6.385e-03,-0.68,-0.8
6.387e-03,-0.7,-0.6
6.389e-03,-0.78,-0.82
6.391e-03,-0.7,-0.62
6.393e-03,-0.68,-0.76
6.395e-03,-0.64,-0.6
6.397e-03,-0.7,-0.78
6.399e-03,-0.7,-0.62
6.401e-03,-0.72,-0.8
6.403e-03,-0.74,-0.64
6.404e-03,-0.7,-0.8
6.406e-03,-0.76,-0.6
6.408e-03,-0.6,-0.68
6.410e-03,-0.62,-0.54
6.412e-03,-0.6,-0.68
6.414e-03,-0.66,-0.52
6.416e-03,-0.54,-0.68
6.418e-03,-0.66,-0.52
6.420e-03,-0.6,-0.78
6.422e-03,-0.72,-0.56
6.424e-03,-0.74,-0.86
6.426e-03,-0.72,-0.7
6.428e-03,-0.8,-0.86
6.429e-03,-0.76,-0.64
6.431e-03,-0.7,-0.82
6.433e-03,-0.68,-0.62
6.435e-03,-0.78,-0.78
6.437e-03,-0.6,-0.56
6.439e-03,-0.68,-0.86
6.441e-03,-0.72,-0.6
6.443e-03,-0.8,-0.84
6.445e-03,-0.74,-0.7
6.447e-03,-0.76,-0.88
6.449e-03,-0.8,-0.7
6.451e-03,-0.78,-0.86
6.452e-03,-0.68,-0.64
6.454e-03,-0.74,-0.84
6.456e-03,-0.76,-0.64
6.458e-03,-0.64,-0.74
6.460e-03,-0.7,-0.58
6.462e-03,-0.62,-0.76
6.464e-03,-0.7,-0.56
6.466e-03,-0.56,-0.76
6.468e-03,-0.62,-0.56
6.470e-03,-0.7,-0.86
6.472e-03,-0.78,-0.66
6.474e-03,-0.8,-0.9
6.476e-03,-0.78,-0.72
6.477e-03,-0.86,-0.9
6.479e-03,-0.76,-0.72
6.481e-03,-0.8,-0.86
6.483e-03,-0.72,-0.68
6.485e-03,-0.8,-0.86
6.487e-03,-0.76,-0.72
6.489e-03,-0.8,-0.86
6.491e-03,-0.78,-0.7
6.493e-03,-0.78,-0.82
6.495e-03,-0.6,-0.52
6.497e-03,-0.62,-0.72
6.499e-03,-0.62,-0.54
6.500e-03,-0.62,-0.68
6.502e-03,-0.6,-0.48
6.504e-03,-0.52,-0.76
6.506e-03,-0.66,-0.5
6.508e-03,-0.62,-0.72
6.510e-03,-0.66,-0.56
6.512e-03,-0.66,-0.9
6.514e-03,-0.84,-0.64
6.516e-03,-0.84,-0.9
6.518e-03,-0.8,-0.72
6.520e-03,-0.8,-0.86
6.522e-03,-0.8,-0.7
6.524e-03,-0.78,-0.82
6.525e-03,-0.74,-0.62
6.527e-03,-0.7,-0.74
6.529e-03,-0.62,-0.6
6.531e-03,-0.74,-0.78
6.533e-03,-0.64,-0.58
6.535e-03,-0.68,-0.72
6.537e-03,-0.58,-0.56
6.539e-03,-0.68,-0.78
6.541e-03,-0.7,-0.6
6.543e-03,-0.64,-0.74
6.545e-03,-0.66,-0.58
6.547e-03,-0.64,-0.86
6.548e-03,-0.76,-0.6
6.550e-03,-0.72,-0.78
6.552e-03,-0.72,-0.64
6.554e-03,-0.68,-0.74
6.556e-03,-0.7,-0.6
6.558e-03,-0.64,-0.76
6.560e-03,-0.7,-0.58
6.562e-03,-0.66,-0.76
6.564e-03,-0.66,-0.6
6.566e-03,-0.66,-0.86
6.568e-03,-0.76,-0.64
6.570e-03,-0.76,-0.84
6.572e-03,-0.72,-0.64
6.573e-03,-0.7,-0.92
6.575e-03,-0.76,-0.66
6.577e-03,-0.9,-0.92
6.579e-03,-0.78,-0.76
6.581e-03,-0.84,-0.92
6.583e-03,-0.8,-0.78
6.585e-03,-0.9,-0.92
6.587e-03,-0.84,-0.68
6.589e-03,-0.72,-0.76
6.591e-03,-0.64,-0.58
6.593e-03,-0.7,-0.78
6.595e-03,-0.7,-0.62
6.596e-03,-0.7,-0.82
6.598e-03,-0.68,-0.6
6.600e-03,-0.74,-0.94
6.602e-03,-0.9,-0.72
6.604e-03,-0.78,-0.92
6.606e-03,-0.88,-0.7
6.608e-03,-0.72,-0.82
6.610e-03,-0.78,-0.66
6.612e-03,-0.7,-0.84
6.614e-03,-0.8,-0.66
6.616e-03,-0.74,-0.82
6.618e-03,-0.72,-0.6
6.620e-03,-0.68,-0.76
6.621e-03,-0.72,-0.62
6.623e-03,-0.72,-0.78
6.625e-03,-0.74,-0.6
6.627e-03,-0.66,-0.78
6.629e-03,-0.68,-0.62
6.631e-03,-0.78,-0.8
6.633e-03,-0.68,-0.64
6.635e-03,-0.72,-0.78
6.637e-03,-0.66,-0.62
6.639e-03,-0.76,-0.8
6.641e-03,-0.68,-0.6
6.643e-03,-0.64,-0.82
6.645e-03,-0.76,-0.6
6.646e-03,-0.7,-0.78
6.648e-03,-0.74,-0.64
6.650e-03,-0.68,-0.88
6.652e-03,-0.82,-0.66
6.654e-03,-0.8,-0.9
6.656e-03,-0.8,-0.7
6.658e-03,-0.7,-0.78
6.660e-03,-0.76,-0.64
6.662e-03,-0.66,-0.86
6.664e-03,-0.82,-0.64
6.666e-03,-0.7,-0.78
6.668e-03,-0.66,-0.6
6.669e-03,-0.72,-0.82
6.671e-03,-0.68,-0.64
6.673e-03,-0.78,-0.84
6.675e-03,-0.72,-0.64
6.677e-03,-0.72,-0.76
6.679e-03,-0.64,-0.62
6.681e-03,-0.7,-0.8
6.683e-03,-0.64,-0.62
6.685e-03,-0.8,-0.82
6.687e-03,-0.7,-0.6
6.689e-03,-0.7,-0.88
6.691e-03,-0.76,-0.62
6.693e-03,-0.82,-0.84
6.694e-03,-0.78,-0.72
6.696e-03,-0.76,-0.84
6.698e-03,-0.78,-0.66
6.700e-03,-0.7,-0.84
6.702e-03,-0.76,-0.68
6.704e-03,-0.7,-0.8
6.706e-03,-0.72,-0.54
6.708e-03,-0.54,-0.76
6.710e-03,-0.72,-0.52
6.712e-03,-0.66,-0.82
6.714e-03,-0.74,-0.62
6.716e-03,-0.76,-0.84
6.717e-03,-0.7,-0.64
6.719e-03,-0.78,-0.84
6.721e-03,-0.74,-0.7
6.723e-03,-0.76,-0.8
6.725e-03,-0.68,-0.62
6.727e-03,-0.72,-0.78
6.729e-03,-0.68,-0.64
6.731e-03,-0.76,-0.78
6.733e-03,-0.6,-0.6
6.735e-03,-0.66,-0.78
6.737e-03,-0.6,-0.56
6.739e-03,-0.7,-0.76
6.741e-03,-0.64,-0.6
6.742e-03,-0.64,-0.72
6.744e-03,-0.56,-0.5
6.746e-03,-0.58,-0.7
6.748e-03,-0.66,-0.54
6.750e-03,-0.58,-0.8
6.752e-03,-0.64,-0.56
6.754e-03,-0.72,-0.82
6.756e-03,-0.78,-0.66
6.758e-03,-0.7,-0.8
6.760e-03,-0.76,-0.64
6.762e-03,-0.7,-0.76
6.764e-03,-0.68,-0.6
6.765e-03,-0.66,-0.78
6.767e-03,-0.72,-0.6
6.769e-03,-0.7,-0.84
6.771e-03,-0.74,-0.66
6.773e-03,-0.76,-0.78
6.775e-03,-0.62,-0.54
6.777e-03,-0.62,-0.76
6.779e-03,-0.66,-0.58
6.781e-03,-0.74,-0.8
6.783e-03,-0.7,-0.66
6.785e-03,-0.78,-0.82
6.787e-03,-0.74,-0.62
6.789e-03,-0.72,-0.78
6.790e-03,-0.68,-0.62
6.792e-03,-0.7,-0.76
6.794e-03,-0.66,-0.6
6.796e-03,-0.64,-0.92
6.798e-03,-0.78,-0.6
6.800e-03,-0.84,-0.92
6.802e-03,-0.84,-0.7
6.804e-03,-0.72,-0.8
6.806e-03,-0.74,-0.64
6.808e-03,-0.68,-0.82
6.810e-03,-0.76,-0.64
6.812e-03,-0.64,-0.72
6.813e-03,-0.58,-0.56
6.815e-03,-0.6,-0.86
6.817e-03,-0.72,-0.56
6.819e-03,-0.82,-0.92
6.821e-03,-0.86,-0.76
6.823e-03,-0.82,-0.84
6.825e-03,-0.7,-0.66
6.827e-03,-0.78,-0.82
6.829e-03,-0.66,-0.64
6.831e-03,-0.82,-0.9
6.833e-03,-0.74,-0.72
6.835e-03,-0.8,-0.86
6.837e-03,-0.76,-0.72
6.838e-03,-0.76,-0.84
6.840e-03,-0.74,-0.68
6.842e-03,-0.72,-0.8
6.844e-03,-0.72,-0.66
6.846e-03,-0.7,-0.84
6.848e-03,-0.8,-0.68
6.850e-03,-0.74,-0.88
6.852e-03,-0.8,-0.7
6.854e-03,-0.72,-0.8
6.856e-03,-0.74,-0.6
6.858e-03,-0.6,-0.7
6.860e-03,-0.68,-0.54
6.861e-03,-0.6,-0.8
6.863e-03,-0.76,-0.56
6.865e-03,-0.72,-0.82
6.867e-03,-0.74,-0.68
6.869e-03,-0.74,-0.82
6.871e-03,-0.68,-0.64
6.873e-03,-0.72,-0.78
6.875e-03,-0.64,-0.6
6.877e-03,-0.72,-0.82
6.879e-03,-0.66,-0.6
6.881e-03,-0.76,-0.78
6.883e-03,-0.68,-0.64
6.885e-03,-0.74,-0.76
6.886e-03,-0.66,-0.6
6.888e-03,-0.7,-0.8
6.890e-03,-0.74,-0.66
6.892e-03,-0.72,-0.78
6.894e-03,-0.7,-0.62
6.896e-03,-0.66,-0.76
6.898e-03,-0.66,-0.6
6.900e-03,-0.66,-0.82
6.902e-03,-0.76,-0.62
6.904e-03,-0.68,-0.76
6.906e-03,-0.68,-0.58
6.908e-03,-0.62,-0.88
6.909e-03,-0.74,-0.6
6.911e-03,-0.82,-0.9
6.913e-03,-0.74,-0.6
6.915e-03,-0.66,-0.7
6.917e-03,-0.62,-0.56
6.919e-03,-0.62,-0.76
6.921e-03,-0.64,-0.58
6.923e-03,-0.72,-0.78
6.925e-03,-0.68,-0.6
6.927e-03,-0.74,-0.8
6.929e-03,-0.7,-0.64
6.931e-03,-0.7,-0.74
6.933e-03,-0.62,-0.58
6.934e-03,-0.7,-0.76
6.936e-03,-0.66,-0.6
6.938e-03,-0.7,-0.74
6.940e-03,-0.66,-0.6
6.942e-03,-0.66,-0.76
6.944e-03,-0.72,-0.62
6.946e-03,-0.68,-0.72
6.948e-03,-0.64,-0.56
6.950e-03,-0.58,-0.72
6.952e-03,-0.64,-0.54
6.954e-03,-0.62,-0.82
6.956e-03,-0.74,-0.6
6.957e-03,-0.76,-0.82
6.959e-03,-0.7,-0.62
6.961e-03,-0.74,-0.84
6.963e-03,-0.76,-0.68
6.965e-03,-0.76,-0.86
6.967e-03,-0.76,-0.7
6.969e-03,-0.78,-0.9
6.971e-03,-0.72,-0.66
6.973e-03,-0.86,-0.9
6.975e-03,-0.72,-0.64
6.977e-03,-0.74,-0.94
6.979e-03,-0.7,-0.66
6.981e-03,-0.94,-0.98
6.982e-03,-0.86,-0.8
6.984e-03,-0.86,-0.94
6.986e-03,-0.8,-0.76
6.988e-03,-0.78,-0.86
6.990e-03,-0.78,-0.68
6.992e-03,-0.72,-0.84
6.994e-03,-0.76,-0.66
6.996e-03,-0.72,-0.82
6.998e-03,-0.76,-0.68
7.000e-03,-0.68,-0.78
7.002e-03,-0.74,-0.64
7.004e-03,-0.68,-0.78
7.005e-03,-0.74,-0.64
7.007e-03,-0.7,-0.88
7.009e-03,-0.78,-0.68
7.011e-03,-0.82,-0.9
7.013e-03,-0.82,-0.72
7.015e-03,-0.78,-0.84
7.017e-03,-0.72,-0.66
7.019e-03,-0.76,-0.78
7.021e-03,-0.64,-0.6
7.023e-03,-0.7,-0.7
7.025e-03,-0.58,-0.52
7.027e-03,-0.6,-0.68
7.029e-03,-0.6,-0.54
7.030e-03,-0.68,-0.84
7.032e-03,-0.72,-0.6
7.034e-03,-0.82,-0.88
7.036e-03,-0.74,-0.66
7.038e-03,-0.76,-0.8
7.040e-03,-0.74,-0.62
7.042e-03,-0.62,-0.74
7.044e-03,-0.7,-0.56
7.046e-03,-0.58,-0.72
7.048e-03,-0.7,-0.54
7.050e-03,-0.6,-0.78
7.052e-03,-0.74,-0.58
7.053e-03,-0.72,-0.86
7.055e-03,-0.84,-0.68
7.057e-03,-0.74,-0.84
7.059e-03,-0.8,-0.66
7.061e-03,-0.7,-0.78
7.063e-03,-0.7,-0.64
7.065e-03,-0.7,-0.76
7.067e-03,-0.64,-0.6
7.069e-03,-0.68,-0.78
7.071e-03,-0.68,-0.58
7.073e-03,-0.68,-0.76
7.075e-03,-0.66,-0.6
7.077e-03,-0.68,-0.72
7.078e-03,-0.6,-0.58
7.080e-03,-0.66,-0.74
7.082e-03,-0.62,-0.58
7.084e-03,-0.66,-0.74
7.086e-03,-0.62,-0.58
7.088e-03,-0.66,-0.74
7.090e-03,-0.68,-0.6
7.092e-03,-0.58,-0.68
7.094e-03,-0.62,-0.52
7.096e-03,-0.54,-0.76
7.098e-03,-0.7,-0.54
7.100e-03,-0.68,-0.76
7.101e-03,-0.7,-0.62
7.103e-03,-0.66,-0.86
7.105e-03,-0.74,-0.64
7.107e-03,-0.8,-0.86
7.109e-03,-0.76,-0.68
7.111e-03,-0.74,-0.8
7.113e-03,-0.68,-0.64
7.115e-03,-0.72,-0.76
7.117e-03,-0.66,-0.58
7.119e-03,-0.66,-0.74
7.121e-03,-0.64,-0.58
7.123e-03,-0.7,-0.8
7.125e-03,-0.66,-0.64
7.126e-03,-0.76,-0.8
7.128e-03,-0.68,-0.6
7.130e-03,-0.68,-0.74
7.132e-03,-0.66,-0.58
7.134e-03,-0.72,-0.82
7.136e-03,-0.68,-0.64
7.138e-03,-0.76,-0.8
7.140e-03,-0.72,-0.64
7.142e-03,-0.68,-0.78
7.144e-03,-0.7,-0.58
7.146e-03,-0.58,-0.74
7.148e-03,-0.72,-0.56
7.149e-03,-0.56,-0.7
7.151e-03,-0.64,-0.54
7.153e-03,-0.58,-0.72
7.155e-03,-0.64,-0.54
7.157e-03,-0.66,-0.76
7.159e-03,-0.68,-0.6
7.161e-03,-0.68,-0.76
7.163e-03,-0.68,-0.58
7.165e-03,-0.66,-0.7
7.167e-03,-0.6,-0.56
7.169e-03,-0.66,-0.7
7.171e-03,-0.58,-0.54
7.173e-03,-0.64,-0.7
7.174e-03,-0.6,-0.54
7.176e-03,-0.68,-0.72
7.178e-03,-0.6,-0.58
7.180e-03,-0.66,-0.76
7.182e-03,-0.66,-0.6
7.184e-03,-0.7,-0.8
7.186e-03,-0.72,-0.62
7.188e-03,-0.68,-0.76
7.190e-03,-0.7,-0.56
7.192e-03,-0.58,-0.66
7.194e-03,-0.58,-0.46
7.196e-03,-0.5,-0.82
7.197e-03,-0.66,-0.5
7.199e-03,-0.74,-0.84
7.201e-03,-0.74,-0.66
7.203e-03,-0.7,-0.8
7.205e-03,-0.68,-0.6
7.207e-03,-0.66,-0.86
7.209e-03,-0.72,-0.6
7.211e-03,-0.78,-0.88
7.213e-03,-0.8,-0.7
7.215e-03,-0.78,-0.82
7.217e-03,-0.7,-0.68
7.219e-03,-0.8,-0.84
7.221e-03,-0.72,-0.68
7.222e-03,-0.78,-0.9
7.224e-03,-0.74,-0.68
7.226e-03,-0.86,-0.9
7.228e-03,-0.82,-0.72
7.230e-03,-0.8,-0.84
7.232e-03,-0.76,-0.7
7.234e-03,-0.74,-0.8
7.236e-03,-0.72,-0.64
7.238e-03,-0.68,-0.82
7.240e-03,-0.78,-0.64
7.242e-03,-0.66,-0.76
7.244e-03,-0.7,-0.56
7.245e-03,-0.58,-0.7
7.247e-03,-0.62,-0.5
7.249e-03,-0.62,-0.78
7.251e-03,-0.62,-0.56
7.253e-03,-0.68,-0.82
7.255e-03,-0.76,-0.66
7.257e-03,-0.7,-0.78
7.259e-03,-0.64,-0.6
7.261e-03,-0.72,-0.82
7.263e-03,-0.72,-0.66
7.265e-03,-0.72,-0.76
7.267e-03,-0.64,-0.62
7.269e-03,-0.72,-0.8
7.270e-03,-0.68,-0.62
7.272e-03,-0.72,-0.74
7.274e-03,-0.62,-0.58
7.276e-03,-0.66,-0.76
7.278e-03,-0.64,-0.56
7.280e-03,-0.72,-0.78
7.282e-03,-0.72,-0.64
7.284e-03,-0.72,-0.82
7.286e-03,-0.76,-0.66
7.288e-03,-0.76,-0.82
7.290e-03,-0.76,-0.6
7.292e-03,-0.62,-0.7
7.294e-03,-0.64,-0.52
7.295e-03,-0.56,-0.66
7.297e-03,-0.52,-0.44
7.299e-03,-0.58,-0.68
7.301e-03,-0.62,-0.52
7.303e-03,-0.62,-0.74
7.305e-03,-0.66,-0.58
7.307e-03,-0.64,-0.72
7.309e-03,-0.66,-0.6
7.311e-03,-0.68,-0.78
7.313e-03,-0.7,-0.62
7.315e-03,-0.7,-0.8
7.317e-03,-0.66,-0.62
7.318e-03,-0.8,-0.82
7.320e-03,-0.62,-0.58
7.322e-03,-0.7,-0.8
7.324e-03,-0.7,-0.62
7.326e-03,-0.72,-0.8
7.328e-03,-0.66,-0.62
7.330e-03,-0.74,-0.9
7.332e-03,-0.78,-0.7
7.334e-03,-0.84,-0.94
7.336e-03,-0.82,-0.62
7.338e-03,-0.66,-0.76
7.340e-03,-0.68,-0.6
7.342e-03,-0.64,-0.78
7.343e-03,-0.74,-0.62
7.345e-03,-0.64,-0.78
7.347e-03,-0.72,-0.6
7.349e-03,-0.66,-0.78
7.351e-03,-0.72,-0.64
7.353e-03,-0.68,-0.74
7.355e-03,-0.66,-0.62
7.357e-03,-0.66,-0.78
7.359e-03,-0.64,-0.6
7.361e-03,-0.76,-0.84
7.363e-03,-0.76,-0.7
7.365e-03,-0.78,-0.92
7.366e-03,-0.82,-0.7
7.368e-03,-0.86,-0.88
7.370e-03,-0.78,-0.68
7.372e-03,-0.76,-0.78
7.374e-03,-0.68,-0.62
7.376e-03,-0.76,-0.84
7.378e-03,-0.72,-0.66
7.380e-03,-0.78,-0.84
7.382e-03,-0.72,-0.6
7.384e-03,-0.66,-0.78
7.386e-03,-0.72,-0.6
7.388e-03,-0.68,-0.74
7.390e-03,-0.64,-0.56
7.391e-03,-0.62,-0.76
7.393e-03,-0.68,-0.6
7.395e-03,-0.68,-0.78
7.397e-03,-0.72,-0.56
7.399e-03,-0.58,-0.7
7.401e-03,-0.64,-0.54
7.403e-03,-0.62,-0.74
7.405e-03,-0.7,-0.54
7.407e-03,-0.58,-0.76
7.409e-03,-0.68,-0.56
7.411e-03,-0.62,-0.76
7.413e-03,-0.62,-0.56
7.414e-03,-0.72,-0.78
7.416e-03,-0.62,-0.6
7.418e-03,-0.78,-0.8
7.420e-03,-0.66,-0.64
7.422e-03,-0.74,-0.8
7.424e-03,-0.68,-0.64
7.426e-03,-0.76,-0.8
7.428e-03,-0.64,-0.58
7.430e-03,-0.64,-0.78
7.432e-03,-0.68,-0.6
7.434e-03,-0.72,-0.76
7.436e-03,-0.66,-0.58
7.438e-03,-0.6,-0.74
7.439e-03,-0.64,-0.56
7.441e-03,-0.66,-0.76
7.443e-03,-0.72,-0.6
7.445e-03,-0.62,-0.8
7.447e-03,-0.76,-0.62
7.449e-03,-0.68,-0.76
7.451e-03,-0.68,-0.6
7.453e-03,-0.68,-0.76
7.455e-03,-0.66,-0.56
7.457e-03,-0.62,-0.76
7.459e-03,-0.64,-0.56
7.461e-03,-0.72,-0.74
7.462e-03,-0.62,-0.58
7.464e-03,-0.66,-0.8
7.466e-03,-0.64,-0.58
7.468e-03,-0.8,-0.84
7.470e-03,-0.64,-0.62
7.472e-03,-0.74,-0.84
7.474e-03,-0.76,-0.66
7.476e-03,-0.78,-0.8
7.478e-03,-0.68,-0.62
7.480e-03,-0.74,-0.76
7.482e-03,-0.68,-0.58
7.484e-03,-0.6,-0.88
7.486e-03,-0.68,-0.56
7.487e-03,-0.82,-0.88
7.489e-03,-0.76,-0.7
7.491e-03,-0.78,-0.86
7.493e-03,-0.8,-0.66
7.495e-03,-0.66,-0.78
7.497e-03,-0.72,-0.62
7.499e-03,-0.66,-0.8
7.501e-03,-0.7,-0.62
7.503e-03,-0.74,-0.8
7.505e-03,-0.7,-0.6
7.507e-03,-0.66,-0.7
7.509e-03,-0.58,-0.52
7.510e-03,-0.6,-0.74
7.512e-03,-0.64,-0.54
7.514e-03,-0.66,-0.82
7.516e-03,-0.7,-0.6
7.518e-03,-0.8,-0.82
7.520e-03,-0.72,-0.66
7.522e-03,-0.72,-0.78
7.524e-03,-0.66,-0.56
7.526e-03,-0.62,-0.84
7.528e-03,-0.68,-0.56
7.530e-03,-0.78,-0.84
7.532e-03,-0.7,-0.64
7.534e-03,-0.74,-0.82
7.535e-03,-0.78,-0.68
7.537e-03,-0.68,-0.8
7.539e-03,-0.76,-0.66
7.541e-03,-0.7,-0.88
7.543e-03,-0.78,-0.66
7.545e-03,-0.8,-0.9
7.547e-03,-0.82,-0.66
7.549e-03,-0.68,-0.76
7.551e-03,-0.68,-0.52
7.553e-03,-0.56,-0.68
7.555e-03,-0.56,-0.48
7.557e-03,-0.64,-0.8
7.558e-03,-0.68,-0.56
7.560e-03,-0.74,-0.88
7.562e-03,-0.74,-0.66
7.564e-03,-0.84,-0.86
7.566e-03,-0.74,-0.7
7.568e-03,-0.78,-0.82
7.570e-03,-0.68,-0.62
7.572e-03,-0.72,-0.78
7.574e-03,-0.66,-0.62
7.576e-03,-0.76,-0.88
7.578e-03,-0.7,-0.64
7.580e-03,-0.82,-0.88
7.582e-03,-0.76,-0.7
7.583e-03,-0.76,-0.82
7.585e-03,-0.76,-0.68
7.587e-03,-0.74,-0.86
7.589e-03,-0.82,-0.7
7.591e-03,-0.74,-0.84
7.593e-03,-0.8,-0.62
7.595e-03,-0.62,-0.78
7.597e-03,-0.72,-0.6
7.599e-03,-0.68,-0.78
7.601e-03,-0.68,-0.6
7.603e-03,-0.64,-0.7
7.605e-03,-0.6,-0.52
7.606e-03,-0.62,-0.72
7.608e-03,-0.62,-0.56
7.610e-03,-0.64,-0.7
7.612e-03,-0.56,-0.52
7.614e-03,-0.72,-0.78
7.616e-03,-0.68,-0.6
7.618e-03,-0.68,-0.78
7.620e-03,-0.66,-0.6
7.622e-03,-0.68,-0.76
7.624e-03,-0.66,-0.62
7.626e-03,-0.68,-0.82
7.628e-03,-0.74,-0.64
7.630e-03,-0.66,-0.76
7.631e-03,-0.7,-0.6
7.633e-03,-0.68,-0.8
7.635e-03,-0.72,-0.64
7.637e-03,-0.7,-0.82
7.639e-03,-0.74,-0.62
7.641e-03,-0.64,-0.8
7.643e-03,-0.76,-0.62
7.645e-03,-0.68,-0.78
7.647e-03,-0.74,-0.6
7.649e-03,-0.62,-0.7
7.651e-03,-0.66,-0.58
7.653e-03,-0.64,-0.78
7.654e-03,-0.7,-0.58
7.656e-03,-0.68,-0.76
7.658e-03,-0.66,-0.62
7.660e-03,-0.68,-0.72
7.662e-03,-0.6,-0.58
7.664e-03,-0.72,-0.84
7.666e-03,-0.74,-0.66
7.668e-03,-0.72,-0.78
7.670e-03,-0.7,-0.64
7.672e-03,-0.76,-0.8
7.674e-03,-0.68,-0.6
7.676e-03,-0.68,-0.8
7.678e-03,-0.72,-0.62
7.679e-03,-0.7,-0.78
7.681e-03,-0.66,-0.6
7.683e-03,-0.68,-0.84
7.685e-03,-0.8,-0.64
7.687e-03,-0.66,-0.8
7.689e-03,-0.72,-0.64
7.691e-03,-0.7,-0.78
7.693e-03,-0.74,-0.62
7.695e-03,-0.68,-0.78
7.697e-03,-0.72,-0.66
7.699e-03,-0.7,-0.78
7.701e-03,-0.7,-0.62
7.702e-03,-0.68,-0.8
7.704e-03,-0.68,-0.62
7.706e-03,-0.78,-0.94
7.708e-03,-0.84,-0.72
7.710e-03,-0.88,-0.92
7.712e-03,-0.82,-0.72
7.714e-03,-0.78,-0.8
7.716e-03,-0.66,-0.58
7.718e-03,-0.64,-0.72
7.720e-03,-0.58,-0.56
7.722e-03,-0.7,-0.86
7.724e-03,-0.7,-0.62
7.726e-03,-0.82,-0.9
7.727e-03,-0.76,-0.66
7.729e-03,-0.78,-0.86
7.731e-03,-0.78,-0.7
7.733e-03,-0.76,-0.82
7.735e-03,-0.68,-0.6
7.737e-03,-0.68,-0.78
7.739e-03,-0.7,-0.58
7.741e-03,-0.58,-0.74
7.743e-03,-0.7,-0.56
7.745e-03,-0.66,-0.82
7.747e-03,-0.78,-0.64
7.749e-03,-0.72,-0.8
7.750e-03,-0.74,-0.64
7.752e-03,-0.7,-0.78
7.754e-03,-0.7,-0.62
7.756e-03,-0.72,-0.76
7.758e-03,-0.64,-0.6
7.760e-03,-0.68,-0.8
7.762e-03,-0.62,-0.6
7.764e-03,-0.8,-0.84
7.766e-03,-0.72,-0.7
7.768e-03,-0.8,-0.84
7.770e-03,-0.74,-0.72
7.772e-03,-0.76,-0.82
7.774e-03,-0.74,-0.66
7.775e-03,-0.68,-0.74
7.777e-03,-0.66,-0.58
7.779e-03,-0.64,-0.72
7.781e-03,-0.64,-0.58
7.783e-03,-0.64,-0.7
7.785e-03,-0.64,-0.54
7.787e-03,-0.64,-0.78
7.789e-03,-0.72,-0.62
7.791e-03,-0.7,-0.8
7.793e-03,-0.74,-0.62
7.795e-03,-0.64,-0.74
7.797e-03,-0.6,-0.54
7.798e-03,-0.68,-0.82
7.800e-03,-0.74,-0.64
7.802e-03,-0.8,-0.88
7.804e-03,-0.78,-0.68
7.806e-03,-0.76,-0.78
7.808e-03,-0.7,-0.62
7.810e-03,-0.7,-0.72
7.812e-03,-0.54,-0.5
7.814e-03,-0.68,-0.7
7.816e-03,-0.62,-0.52
7.818e-03,-0.6,-0.74
7.820e-03,-0.56,-0.46
7.822e-03,-0.72,-0.74
7.823e-03,-0.62,-0.58
7.825e-03,-0.62,-0.78
7.827e-03,-0.72,-0.58
7.829e-03,-0.68,-0.86
7.831e-03,-0.82,-0.66
7.833e-03,-0.7,-0.8
7.835e-03,-0.74,-0.6
7.837e-03,-0.62,-0.76
7.839e-03,-0.72,-0.6
7.841e-03,-0.68,-0.78
7.843e-03,-0.72,-0.62
7.845e-03,-0.66,-0.84
7.846e-03,-0.74,-0.62
7.848e-03,-0.76,-0.82
7.850e-03,-0.76,-0.68
7.852e-03,-0.76,-0.8
7.854e-03,-0.66,-0.58
7.856e-03,-0.68,-0.78
7.858e-03,-0.66,-0.64
7.860e-03,-0.8,-0.8
7.862e-03,-0.68,-0.62
7.864e-03,-0.72,-0.76
7.866e-03,-0.64,-0.6
7.868e-03,-0.72,-0.88
7.870e-03,-0.8,-0.66
7.871e-03,-0.8,-0.86
7.873e-03,-0.72,-0.58
7.875e-03,-0.62,-0.7
7.877e-03,-0.58,-0.52
7.879e-03,-0.56,-0.84
7.881e-03,-0.66,-0.52
7.883e-03,-0.76,-0.86
7.885e-03,-0.76,-0.64
7.887e-03,-0.7,-0.82
7.889e-03,-0.78,-0.68
7.891e-03,-0.72,-0.82
7.893e-03,-0.68,-0.58
7.895e-03,-0.6,-0.78
7.896e-03,-0.7,-0.6
7.898e-03,-0.66,-0.74
7.900e-03,-0.68,-0.58
7.902e-03,-0.64,-0.76
7.904e-03,-0.64,-0.58
7.906e-03,-0.7,-0.72
7.908e-03,-0.6,-0.56
7.910e-03,-0.68,-0.76
7.912e-03,-0.62,-0.56
7.914e-03,-0.74,-0.78
7.916e-03,-0.68,-0.62
7.918e-03,-0.78,-0.8
7.919e-03,-0.68,-0.58
7.921e-03,-0.7,-0.76
7.923e-03,-0.68,-0.6
7.925e-03,-0.64,-0.78
7.927e-03,-0.7,-0.6
7.929e-03,-0.7,-0.76
7.931e-03,-0.68,-0.6
7.933e-03,-0.66,-0.8
7.935e-03,-0.76,-0.66
7.937e-03,-0.7,-0.78
7.939e-03,-0.7,-0.54
7.941e-03,-0.56,-0.68
7.943e-03,-0.64,-0.52
7.944e-03,-0.6,-0.78
7.946e-03,-0.66,-0.56
7.948e-03,-0.74,-0.78
7.950e-03,-0.7,-0.6
7.952e-03,-0.68,-0.74
7.954e-03,-0.64,-0.6
7.956e-03,-0.68,-0.74
7.958e-03,-0.62,-0.58
7.960e-03,-0.74,-0.76
7.962e-03,-0.6,-0.6
7.964e-03,-0.74,-0.78
7.966e-03,-0.66,-0.62
7.967e-03,-0.7,-0.82
7.969e-03,-0.72,-0.64
7.971e-03,-0.68,-0.74
7.973e-03,-0.62,-0.52
7.975e-03,-0.56,-0.76
7.977e-03,-0.64,-0.52
7.979e-03,-0.68,-0.84
7.981e-03,-0.78,-0.64
7.983e-03,-0.76,-0.82
7.985e-03,-0.7,-0.62
7.987e-03,-0.66,-0.82
7.989e-03,-0.8,-0.64
7.991e-03,-0.64,-0.74
7.992e-03,-0.7,-0.6
7.994e-03,-0.66,-0.78
7.996e-03,-0.72,-0.62
7.998e-03,-0.76,-0.84
8.000e-03,-0.74,-0.68
8.002e-03,-0.76,-0.88
8.004e-03,-0.74,-0.68
8.006e-03,-0.88,-0.92
8.008e-03,-0.82,-0.78
8.010e-03,-0.84,-0.88
8.012e-03,-0.66,-0.6
8.014e-03,-0.7,-0.76
8.015e-03,-0.66,-0.6
8.017e-03,-0.72,-0.78
8.019e-03,-0.7,-0.6
8.021e-03,-0.68,-0.78
8.023e-03,-0.68,-0.6
8.025e-03,-0.7,-0.82
8.027e-03,-0.66,-0.6
8.029e-03,-0.74,-0.86
8.031e-03,-0.78,-0.7
8.033e-03,-0.72,-0.84
8.035e-03,-0.8,-0.66
8.037e-03,-0.68,-0.8
8.039e-03,-0.72,-0.66
8.040e-03,-0.7,-0.8
8.042e-03,-0.68,-0.6
8.044e-03,-0.64,-0.78
8.046e-03,-0.7,-0.54
8.048e-03,-0.58,-0.68
8.050e-03,-0.58,-0.52
8.052e-03,-0.62,-0.8
8.054e-03,-0.7,-0.56
8.056e-03,-0.76,-0.82
8.058e-03,-0.68,-0.66
8.060e-03,-0.82,-0.82
8.062e-03,-0.7,-0.6
8.063e-03,-0.64,-0.76
8.065e-03,-0.64,-0.56
8.067e-03,-0.7,-0.74
8.069e-03,-0.62,-0.58
8.071e-03,-0.66,-0.74
8.073e-03,-0.64,-0.56
8.075e-03,-0.6,-0.76
8.077e-03,-0.72,-0.58
8.079e-03,-0.64,-0.84
8.081e-03,-0.78,-0.62
8.083e-03,-0.72,-0.8
8.085e-03,-0.72,-0.64
8.087e-03,-0.72,-0.78
8.088e-03,-0.7,-0.6
8.090e-03,-0.7,-0.8
8.092e-03,-0.78,-0.66
8.094e-03,-0.72,-0.78
8.096e-03,-0.74,-0.64
8.098e-03,-0.72,-0.76
8.100e-03,-0.66,-0.6
8.102e-03,-0.68,-0.84
8.104e-03,-0.72,-0.62
8.106e-03,-0.7,-0.8
8.108e-03,-0.7,-0.62
8.110e-03,-0.72,-0.74
8.111e-03,-0.64,-0.58
8.113e-03,-0.68,-0.76
8.115e-03,-0.62,-0.56
8.117e-03,-0.72,-0.84
8.119e-03,-0.76,-0.68
8.121e-03,-0.76,-0.9
8.123e-03,-0.82,-0.7
8.125e-03,-0.74,-0.8
8.127e-03,-0.74,-0.64
8.129e-03,-0.68,-0.76
8.131e-03,-0.7,-0.6
8.133e-03,-0.58,-0.68
8.135e-03,-0.62,-0.52
8.136e-03,-0.58,-0.78
8.138e-03,-0.72,-0.58
8.140e-03,-0.68,-0.78
8.142e-03,-0.7,-0.58
8.144e-03,-0.62,-0.74
8.146e-03,-0.62,-0.56
8.148e-03,-0.7,-0.8
8.150e-03,-0.68,-0.64
8.152e-03,-0.74,-0.78
8.154e-03,-0.64,-0.58
8.156e-03,-0.66,-0.82
8.158e-03,-0.72,-0.6
8.159e-03,-0.78,-0.82
8.161e-03,-0.7,-0.66
8.163e-03,-0.74,-0.84
8.165e-03,-0.7,-0.66
8.167e-03,-0.8,-0.94
8.169e-03,-0.86,-0.7
8.171e-03,-0.76,-0.9
8.173e-03,-0.86,-0.72
8.175e-03,-0.78,-0.88
8.177e-03,-0.8,-0.72
8.179e-03,-0.76,-0.88
8.181e-03,-0.76,-0.68
8.183e-03,-0.78,-0.9
8.184e-03,-0.84,-0.74
8.186e-03,-0.8,-0.86
8.188e-03,-0.82,-0.72
8.190e-03,-0.78,-0.9
8.192e-03,-0.88,-0.72
8.194e-03,-0.78,-0.88
8.196e-03,-0.74,-0.62
8.198e-03,-0.7,-0.76
8.200e-03,-0.58,-0.54
8.202e-03,-0.72,-0.8
8.204e-03,-0.7,-0.66
8.206e-03,-0.76,-0.78
8.207e-03,-0.66,-0.6
8.209e-03,-0.7,-0.74
8.211e-03,-0.62,-0.58
8.213e-03,-0.7,-0.74
8.215e-03,-0.62,-0.58
8.217e-03,-0.62,-0.7
8.219e-03,-0.6,-0.54
8.221e-03,-0.64,-0.82
8.223e-03,-0.76,-0.58
8.225e-03,-0.68,-0.82
8.227e-03,-0.78,-0.64
8.229e-03,-0.66,-0.76
8.231e-03,-0.72,-0.58
8.232e-03,-0.6,-0.74
8.234e-03,-0.7,-0.58
8.236e-03,-0.62,-0.74
8.238e-03,-0.68,-0.56
8.240e-03,-0.62,-0.68
8.242e-03,-0.62,-0.54
8.244e-03,-0.6,-0.72
8.246e-03,-0.62,-0.54
8.248e-03,-0.7,-0.78
8.250e-03,-0.68,-0.6
8.252e-03,-0.7,-0.74
8.254e-03,-0.64,-0.6
8.255e-03,-0.68,-0.72
8.257e-03,-0.58,-0.52
8.259e-03,-0.64,-0.76
8.261e-03,-0.66,-0.56
8.263e-03,-0.72,-0.76
8.265e-03,-0.68,-0.6
8.267e-03,-0.68,-0.82
8.269e-03,-0.74,-0.62
8.271e-03,-0.72,-0.82
8.273e-03,-0.74,-0.66
8.275e-03,-0.76,-0.9
8.277e-03,-0.84,-0.74
8.279e-03,-0.8,-0.9
8.280e-03,-0.8,-0.68
8.282e-03,-0.68,-0.86
8.284e-03,-0.78,-0.66
8.286e-03,-0.78,-0.9
8.288e-03,-0.82,-0.74
8.290e-03,-0.78,-0.86
8.292e-03,-0.72,-0.66
8.294e-03,-0.7,-0.78
8.296e-03,-0.64,-0.58
8.298e-03,-0.74,-0.86
8.300e-03,-0.78,-0.7
8.302e-03,-0.78,-0.88
8.303e-03,-0.76,-0.72
8.305e-03,-0.84,-0.86
8.307e-03,-0.68,-0.68
8.309e-03,-0.8,-0.86
8.311e-03,-0.72,-0.7
8.313e-03,-0.74,-0.78
8.315e-03,-0.66,-0.5
8.317e-03,-0.56,-0.82
8.319e-03,-0.66,-0.5
8.321e-03,-0.76,-0.84
8.323e-03,-0.8,-0.7
8.325e-03,-0.7,-0.76
8.327e-03,-0.66,-0.56
8.328e-03,-0.6,-0.76
8.330e-03,-0.68,-0.58
8.332e-03,-0.68,-0.76
8.334e-03,-0.66,-0.58
8.336e-03,-0.58,-0.74
8.338e-03,-0.62,-0.54
8.340e-03,-0.7,-0.76
8.342e-03,-0.62,-0.56
8.344e-03,-0.66,-0.74
8.346e-03,-0.6,-0.56
8.348e-03,-0.64,-0.82
8.350e-03,-0.74,-0.58
8.351e-03,-0.76,-0.92
8.353e-03,-0.82,-0.7
8.355e-03,-0.88,-0.9
8.357e-03,-0.78,-0.74
8.359e-03,-0.9,-0.92
8.361e-03,-0.78,-0.74
8.363e-03,-0.9,-0.94
8.365e-03,-0.88,-0.74
8.367e-03,-0.78,-0.84
8.369e-03,-0.78,-0.7
8.371e-03,-0.72,-0.82
8.373e-03,-0.78,-0.68
8.375e-03,-0.68,-0.76
8.376e-03,-0.7,-0.62
8.378e-03,-0.64,-0.78
8.380e-03,-0.72,-0.62
8.382e-03,-0.68,-0.78
8.384e-03,-0.68,-0.54
8.386e-03,-0.58,-0.68
8.388e-03,-0.62,-0.52
8.390e-03,-0.56,-0.7
8.392e-03,-0.58,-0.52
8.394e-03,-0.62,-0.74
8.396e-03,-0.62,-0.54
8.398e-03,-0.72,-0.82
8.399e-03,-0.72,-0.6
8.401e-03,-0.66,-0.68
8.403e-03,-0.56,-0.54
8.405e-03,-0.66,-0.82
8.407e-03,-0.64,-0.6
8.409e-03,-0.78,-0.86
8.411e-03,-0.76,-0.72
8.413e-03,-0.78,-0.86
8.415e-03,-0.78,-0.72
8.417e-03,-0.78,-0.84
8.419e-03,-0.68,-0.62
8.421e-03,-0.72,-0.82
8.423e-03,-0.74,-0.64
8.424e-03,-0.66,-0.74
8.426e-03,-0.68,-0.54
8.428e-03,-0.54,-0.78
8.430e-03,-0.72,-0.54
8.432e-03,-0.7,-0.76
8.434e-03,-0.7,-0.6
8.436e-03,-0.62,-0.8
8.438e-03,-0.76,-0.6
8.440e-03,-0.72,-0.78
8.442e-03,-0.68,-0.56
8.444e-03,-0.62,-0.78
8.446e-03,-0.7,-0.56
8.447e-03,-0.74,-0.8
8.449e-03,-0.66,-0.64
8.451e-03,-0.78,-0.82
8.453e-03,-0.68,-0.64
8.455e-03,-0.72,-0.74
8.457e-03,-0.64,-0.56
8.459e-03,-0.66,-0.74
8.461e-03,-0.62,-0.54
8.463e-03,-0.64,-0.7
8.465e-03,-0.64,-0.56
8.467e-03,-0.6,-0.72
8.469e-03,-0.66,-0.54
8.471e-03,-0.66,-0.76
8.472e-03,-0.7,-0.6
8.474e-03,-0.62,-0.74
8.476e-03,-0.7,-0.56
8.478e-03,-0.6,-0.72
8.480e-03,-0.64,-0.56
8.482e-03,-0.62,-0.78
8.484e-03,-0.7,-0.58
8.486e-03,-0.64,-0.78
8.488e-03,-0.64,-0.6
8.490e-03,-0.72,-0.9
8.492e-03,-0.8,-0.66
8.494e-03,-0.82,-0.86
8.495e-03,-0.74,-0.72
8.497e-03,-0.84,-0.86
8.499e-03,-0.72,-0.68
8.501e-03,-0.74,-0.78
8.503e-03,-0.66,-0.62
8.505e-03,-0.68,-0.78
8.507e-03,-0.64,-0.58
8.509e-03,-0.74,-0.86
8.511e-03,-0.76,-0.68
8.513e-03,-0.72,-0.8
8.515e-03,-0.7,-0.64
8.517e-03,-0.72,-0.82
8.519e-03,-0.76,-0.66
8.520e-03,-0.72,-0.82
8.522e-03,-0.8,-0.7
8.524e-03,-0.74,-0.84
8.526e-03,-0.78,-0.66
8.528e-03,-0.68,-0.82
8.530e-03,-0.74,-0.64
8.532e-03,-0.72,-0.82
8.534e-03,-0.78,-0.66
8.536e-03,-0.7,-0.78
8.538e-03,-0.74,-0.6
8.540e-03,-0.66,-0.74
8.542e-03,-0.62,-0.58
8.544e-03,-0.64,-0.7
8.545e-03,-0.6,-0.54
8.547e-03,-0.62,-0.78
8.549e-03,-0.64,-0.56
8.551e-03,-0.76,-0.82
8.553e-03,-0.68,-0.68
8.555e-03,-0.78,-0.82
8.557e-03,-0.72,-0.68
8.559e-03,-0.76,-0.8
8.561e-03,-0.68,-0.64
8.563e-03,-0.7,-0.76
8.565e-03,-0.68,-0.62
8.567e-03,-0.68,-0.78
8.568e-03,-0.68,-0.6
8.570e-03,-0.66,-0.82
8.572e-03,-0.76,-0.64
8.574e-03,-0.7,-0.8
8.576e-03,-0.72,-0.62
8.578e-03,-0.68,-0.8
8.580e-03,-0.74,-0.66
8.582e-03,-0.68,-0.76
8.584e-03,-0.64,-0.58
8.586e-03,-0.62,-0.78
8.588e-03,-0.64,-0.56
8.590e-03,-0.76,-0.86
8.592e-03,-0.78,-0.72
8.593e-03,-0.82,-0.86
8.595e-03,-0.64,-0.58
8.597e-03,-0.68,-0.7
8.599e-03,-0.6,-0.56
8.601e-03,-0.64,-0.72
8.603e-03,-0.62,-0.56
8.605e-03,-0.7,-0.8
8.607e-03,-0.7,-0.64
8.609e-03,-0.78,-0.9
8.611e-03,-0.8,-0.72
8.613e-03,-0.8,-0.86
8.615e-03,-0.64,-0.54
8.616e-03,-0.58,-0.7
8.618e-03,-0.58,-0.5
8.620e-03,-0.6,-0.76
8.622e-03,-0.72,-0.58
8.624e-03,-0.66,-0.76
8.626e-03,-0.68,-0.6
8.628e-03,-0.64,-0.76
8.630e-03,-0.7,-0.6
8.632e-03,-0.72,-0.84
8.634e-03,-0.78,-0.66
8.636e-03,-0.72,-0.8
8.638e-03,-0.74,-0.66
8.640e-03,-0.74,-0.9
8.641e-03,-0.86,-0.7
8.643e-03,-0.78,-0.84
8.645e-03,-0.76,-0.68
8.647e-03,-0.76,-0.78
8.649e-03,-0.68,-0.64
8.651e-03,-0.72,-0.8
8.653e-03,-0.68,-0.62
8.655e-03,-0.66,-0.7
8.657e-03,-0.58,-0.56
8.659e-03,-0.64,-0.76
8.661e-03,-0.64,-0.58
8.663e-03,-0.62,-0.74
8.664e-03,-0.62,-0.58
8.666e-03,-0.68,-0.82
8.668e-03,-0.74,-0.64
8.670e-03,-0.68,-0.82
8.672e-03,-0.8,-0.66
8.674e-03,-0.76,-0.88
8.676e-03,-0.82,-0.72
8.678e-03,-0.72,-0.84
8.680e-03,-0.74,-0.62
8.682e-03,-0.66,-0.8
8.684e-03,-0.7,-0.62
8.686e-03,-0.74,-0.84
8.688e-03,-0.76,-0.66
8.689e-03,-0.72,-0.86
8.691e-03,-0.7,-0.66
8.693e-03,-0.82,-0.82
8.695e-03,-0.64,-0.58
8.697e-03,-0.64,-0.7
8.699e-03,-0.54,-0.52
8.701e-03,-0.6,-0.76
8.703e-03,-0.62,-0.54
8.705e-03,-0.7,-0.76
8.707e-03,-0.68,-0.62
8.709e-03,-0.74,-0.78
8.711e-03,-0.72,-0.64
8.712e-03,-0.68,-0.82
8.714e-03,-0.76,-0.64
8.716e-03,-0.72,-0.82
8.718e-03,-0.7,-0.62
8.720e-03,-0.72,-0.92
8.722e-03,-0.86,-0.7
8.724e-03,-0.82,-0.9
8.726e-03,-0.84,-0.66
8.728e-03,-0.68,-0.84
8.730e-03,-0.8,-0.66
8.732e-03,-0.7,-0.82
8.734e-03,-0.76,-0.64
8.736e-03,-0.7,-0.76
8.737e-03,-0.68,-0.6
8.739e-03,-0.66,-0.76
8.741e-03,-0.68,-0.6
8.743e-03,-0.7,-0.76
8.745e-03,-0.62,-0.6
8.747e-03,-0.74,-0.88
8.749e-03,-0.78,-0.68
8.751e-03,-0.8,-0.86
8.753e-03,-0.76,-0.72
8.755e-03,-0.82,-0.9
8.757e-03,-0.84,-0.72
8.759e-03,-0.76,-0.82
8.760e-03,-0.68,-0.6
8.762e-03,-0.7,-0.8
8.764e-03,-0.74,-0.66
8.766e-03,-0.68,-0.78
8.768e-03,-0.72,-0.62
8.770e-03,-0.68,-0.78
8.772e-03,-0.72,-0.62
8.774e-03,-0.7,-0.86
8.776e-03,-0.78,-0.68
8.778e-03,-0.76,-0.84
8.780e-03,-0.82,-0.62
8.782e-03,-0.66,-0.72
8.784e-03,-0.62,-0.54
8.785e-03,-0.62,-0.82
8.787e-03,-0.72,-0.58
8.789e-03,-0.78,-0.82
8.791e-03,-0.7,-0.64
8.793e-03,-0.76,-0.78
8.795e-03,-0.6,-0.6
8.797e-03,-0.68,-0.72
8.799e-03,-0.56,-0.54
8.801e-03,-0.66,-0.72
8.803e-03,-0.6,-0.56
8.805e-03,-0.68,-0.78
8.807e-03,-0.68,-0.62
8.808e-03,-0.72,-0.84
8.810e-03,-0.74,-0.64
8.812e-03,-0.78,-0.98
8.814e-03,-0.9,-0.74
8.816e-03,-0.9,-0.96

