Model,DPO2002B
Firmware Version,1.52

Point Format,Y,
Horizontal Units,S,
Horizontal Scale,0.001,
Sample Interval,1.92012e-06,
Filter Frequency,7e+07,
Record Length,5207,
Gating,0.0% to 100.0%,
Probe Attenuation,10,
Vertical Units,V,
Vertical Offset,0.6,
Vertical Scale,0.5,
Label,,
TIME,CH1,CH1 Peak Detect
-1.180e-03,-0.58,-0.72
-1.178e-03,-0.7,-0.56
-1.176e-03,-0.56,-0.74
-1.174e-03,-0.66,-0.54
-1.172e-03,-0.64,-0.84
-1.170e-03,-0.82,-0.62
-1.168e-03,-0.76,-0.86
-1.167e-03,-0.82,-0.64
-1.165e-03,-0.68,-0.74
-1.163e-03,-0.66,-0.6
-1.161e-03,-0.66,-0.82
-1.159e-03,-0.7,-0.62
-1.157e-03,-0.74,-0.78
-1.155e-03,-0.7,-0.62
-1.153e-03,-0.7,-0.74
-1.151e-03,-0.6,-0.58
-1.149e-03,-0.7,-0.78
-1.147e-03,-0.66,-0.6
-1.145e-03,-0.72,-0.76
-1.144e-03,-0.68,-0.58
-1.142e-03,-0.62,-0.76
-1.140e-03,-0.64,-0.58
-1.138e-03,-0.64,-0.74
-1.136e-03,-0.66,-0.58
-1.134e-03,-0.68,-0.78
-1.132e-03,-0.68,-0.6
-1.130e-03,-0.68,-0.76
-1.128e-03,-0.7,-0.56
-1.126e-03,-0.58,-0.7
-1.124e-03,-0.66,-0.54
-1.122e-03,-0.6,-0.7
-1.120e-03,-0.62,-0.52
-1.119e-03,-0.56,-0.7
-1.117e-03,-0.64,-0.54
-1.115e-03,-0.64,-0.82
-1.113e-03,-0.72,-0.6
-1.111e-03,-0.78,-0.82
-1.109e-03,-0.7,-0.64
-1.107e-03,-0.78,-0.84
-1.105e-03,-0.68,-0.64
-1.103e-03,-0.74,-0.8
-1.101e-03,-0.68,-0.64
-1.099e-03,-0.78,-0.84
-1.097e-03,-0.74,-0.7
-1.096e-03,-0.82,-0.84
-1.094e-03,-0.72,-0.7
-1.092e-03,-0.74,-0.78
-1.090e-03,-0.68,-0.62
-1.088e-03,-0.72,-0.78
-1.086e-03,-0.74,-0.66
-1.084e-03,-0.7,-0.78
-1.082e-03,-0.72,-0.6
-1.080e-03,-0.68,-0.78
-1.078e-03,-0.7,-0.62
-1.076e-03,-0.62,-0.74
-1.074e-03,-0.68,-0.58
-1.072e-03,-0.68,-0.78
-1.071e-03,-0.76,-0.62
-1.069e-03,-0.68,-0.8
-1.067e-03,-0.76,-0.62
-1.065e-03,-0.68,-0.74
-1.063e-03,-0.7,-0.62
-1.061e-03,-0.66,-0.8
-1.059e-03,-0.72,-0.62
-1.057e-03,-0.76,-0.78
-1.055e-03,-0.66,-0.62
-1.053e-03,-0.76,-0.82
-1.051e-03,-0.7,-0.68
-1.049e-03,-0.8,-0.82
-1.048e-03,-0.66,-0.64
-1.046e-03,-0.7,-0.74
-1.044e-03,-0.64,-0.6
-1.042e-03,-0.64,-0.78
-1.040e-03,-0.64,-0.6
-1.038e-03,-0.72,-0.88
-1.036e-03,-0.82,-0.7
-1.034e-03,-0.78,-0.9
-1.032e-03,-0.84,-0.74
-1.030e-03,-0.76,-0.88
-1.028e-03,-0.8,-0.72
-1.026e-03,-0.72,-0.78
-1.024e-03,-0.74,-0.66
-1.023e-03,-0.68,-0.8
-1.021e-03,-0.7,-0.6
-1.019e-03,-0.74,-0.88
-1.017e-03,-0.8,-0.72
-1.015e-03,-0.84,-0.9
-1.013e-03,-0.74,-0.68
-1.011e-03,-0.78,-0.82
-1.009e-03,-0.68,-0.64
-1.007e-03,-0.8,-0.82
-1.005e-03,-0.72,-0.66
-1.003e-03,-0.72,-0.82
-1.001e-03,-0.72,-0.62
-9.995e-04,-0.78,-0.8
-9.976e-04,-0.66,-0.6
-9.957e-04,-0.76,-0.8
-9.937e-04,-0.66,-0.58
-9.918e-04,-0.72,-0.76
-9.899e-04,-0.68,-0.6
-9.880e-04,-0.7,-0.78
-9.861e-04,-0.7,-0.62
-9.841e-04,-0.7,-0.84
-9.822e-04,-0.78,-0.66
-9.803e-04,-0.72,-0.84
-9.784e-04,-0.84,-0.68
-9.765e-04,-0.68,-0.86
-9.745e-04,-0.78,-0.66
-9.726e-04,-0.76,-0.84
-9.707e-04,-0.76,-0.66
-9.688e-04,-0.7,-0.78
-9.669e-04,-0.72,-0.62
-9.649e-04,-0.66,-0.72
-9.630e-04,-0.62,-0.54
-9.611e-04,-0.6,-0.76
-9.592e-04,-0.66,-0.56
-9.573e-04,-0.72,-0.82
-9.553e-04,-0.72,-0.66
-9.534e-04,-0.76,-0.84
-9.515e-04,-0.72,-0.68
-9.496e-04,-0.84,-0.88
-9.477e-04,-0.76,-0.7
-9.457e-04,-0.76,-0.82
-9.438e-04,-0.72,-0.62
-9.419e-04,-0.62,-0.7
-9.400e-04,-0.6,-0.52
-9.381e-04,-0.52,-0.62
-9.361e-04,-0.52,-0.46
-9.342e-04,-0.52,-0.74
-9.323e-04,-0.66,-0.5
-9.304e-04,-0.68,-0.82
-9.285e-04,-0.78,-0.66
-9.265e-04,-0.7,-0.78
-9.246e-04,-0.66,-0.54
-9.227e-04,-0.54,-0.64
-9.208e-04,-0.52,-0.42
-9.189e-04,-0.58,-0.8
-9.169e-04,-0.74,-0.56
-9.150e-04,-0.72,-0.92
-9.131e-04,-0.82,-0.7
-9.112e-04,-0.86,-0.88
-9.093e-04,-0.74,-0.62
-9.073e-04,-0.7,-0.74
-9.054e-04,-0.64,-0.58
-9.035e-04,-0.68,-0.72
-9.016e-04,-0.58,-0.54
-8.997e-04,-0.64,-0.66
-8.977e-04,-0.58,-0.54
-8.958e-04,-0.6,-0.78
-8.939e-04,-0.68,-0.54
-8.920e-04,-0.7,-0.8
-8.901e-04,-0.74,-0.64
-8.881e-04,-0.66,-0.78
-8.862e-04,-0.76,-0.62
-8.843e-04,-0.68,-0.8
-8.824e-04,-0.72,-0.64
-8.805e-04,-0.72,-0.82
-8.785e-04,-0.76,-0.62
-8.766e-04,-0.62,-0.82
-8.747e-04,-0.76,-0.6
-8.728e-04,-0.74,-0.82
-8.709e-04,-0.76,-0.7
-8.689e-04,-0.72,-0.82
-8.670e-04,-0.72,-0.68
-8.651e-04,-0.74,-0.82
-8.632e-04,-0.76,-0.64
-8.613e-04,-0.72,-0.8
-8.593e-04,-0.7,-0.64
-8.574e-04,-0.78,-0.84
-8.555e-04,-0.76,-0.68
-8.536e-04,-0.74,-0.78
-8.517e-04,-0.58,-0.56
-8.497e-04,-0.68,-0.72
-8.478e-04,-0.64,-0.58
-8.459e-04,-0.62,-0.76
-8.440e-04,-0.66,-0.54
-8.421e-04,-0.72,-0.8
-8.401e-04,-0.7,-0.62
-8.382e-04,-0.72,-0.82
-8.363e-04,-0.78,-0.66
-8.344e-04,-0.68,-0.82
-8.325e-04,-0.76,-0.62
-8.305e-04,-0.72,-0.82
-8.286e-04,-0.76,-0.62
-8.267e-04,-0.64,-0.7
-8.248e-04,-0.62,-0.54
-8.229e-04,-0.6,-0.66
-8.209e-04,-0.56,-0.48
-8.190e-04,-0.54,-0.64
-8.171e-04,-0.54,-0.48
-8.152e-04,-0.6,-0.82
-8.133e-04,-0.66,-0.56
-8.113e-04,-0.78,-0.84
-8.094e-04,-0.76,-0.7
-8.075e-04,-0.82,-0.84
-8.056e-04,-0.68,-0.64
-8.037e-04,-0.74,-0.76
-8.017e-04,-0.68,-0.62
-7.998e-04,-0.68,-0.72
-7.979e-04,-0.64,-0.52
-7.960e-04,-0.6,-0.74
-7.941e-04,-0.68,-0.54
-7.921e-04,-0.68,-0.8
-7.902e-04,-0.7,-0.64
-7.883e-04,-0.7,-0.78
-7.864e-04,-0.7,-0.64
-7.845e-04,-0.68,-0.78
-7.825e-04,-0.72,-0.64
-7.806e-04,-0.66,-0.86
-7.787e-04,-0.74,-0.62
-7.768e-04,-0.76,-0.88
-7.749e-04,-0.68,-0.56
-7.729e-04,-0.6,-0.74
-7.710e-04,-0.64,-0.58
-7.691e-04,-0.66,-0.74
-7.672e-04,-0.66,-0.6
-7.653e-04,-0.68,-0.78
-7.633e-04,-0.68,-0.62
-7.614e-04,-0.74,-0.8
-7.595e-04,-0.68,-0.58
-7.576e-04,-0.66,-0.74
-7.557e-04,-0.58,-0.56
-7.537e-04,-0.7,-0.78
-7.518e-04,-0.66,-0.62
-7.499e-04,-0.72,-0.76
-7.480e-04,-0.62,-0.56
-7.461e-04,-0.72,-0.8
-7.441e-04,-0.72,-0.64
-7.422e-04,-0.72,-0.78
-7.403e-04,-0.68,-0.62
-7.384e-04,-0.66,-0.78
-7.365e-04,-0.72,-0.62
-7.345e-04,-0.68,-0.78
-7.326e-04,-0.74,-0.64
-7.307e-04,-0.64,-0.72
-7.288e-04,-0.64,-0.52
-7.269e-04,-0.56,-0.68
-7.249e-04,-0.66,-0.52
-7.230e-04,-0.56,-0.7
-7.211e-04,-0.66,-0.54
-7.192e-04,-0.64,-0.72
-7.173e-04,-0.66,-0.56
-7.153e-04,-0.68,-0.86
-7.134e-04,-0.74,-0.62
-7.115e-04,-0.82,-0.86
-7.096e-04,-0.72,-0.66
-7.076e-04,-0.74,-0.76
-7.057e-04,-0.6,-0.58
-7.038e-04,-0.66,-0.7
-7.019e-04,-0.58,-0.52
-7.000e-04,-0.6,-0.68
-6.980e-04,-0.56,-0.48
-6.961e-04,-0.56,-0.74
-6.942e-04,-0.6,-0.5
-6.923e-04,-0.68,-0.78
-6.904e-04,-0.72,-0.62
-6.884e-04,-0.66,-0.8
-6.865e-04,-0.72,-0.62
-6.846e-04,-0.7,-0.78
-6.827e-04,-0.7,-0.56
-6.808e-04,-0.62,-0.74
-6.788e-04,-0.68,-0.58
-6.769e-04,-0.64,-0.74
-6.750e-04,-0.68,-0.6
-6.731e-04,-0.68,-0.82
-6.712e-04,-0.76,-0.64
-6.692e-04,-0.74,-0.8
-6.673e-04,-0.68,-0.62
-6.654e-04,-0.76,-0.78
-6.635e-04,-0.72,-0.64
-6.616e-04,-0.72,-0.82
-6.596e-04,-0.72,-0.64
-6.577e-04,-0.74,-0.78
-6.558e-04,-0.64,-0.6
-6.539e-04,-0.7,-0.72
-6.520e-04,-0.6,-0.54
-6.500e-04,-0.62,-0.72
-6.481e-04,-0.64,-0.56
-6.462e-04,-0.66,-0.82
-6.443e-04,-0.7,-0.62
-6.424e-04,-0.74,-0.84
-6.404e-04,-0.8,-0.68
-6.385e-04,-0.72,-0.8
-6.366e-04,-0.72,-0.64
-6.347e-04,-0.7,-0.84
-6.328e-04,-0.8,-0.7
-6.308e-04,-0.7,-0.82
-6.289e-04,-0.82,-0.7
-6.270e-04,-0.72,-0.8
-6.251e-04,-0.74,-0.58
-6.232e-04,-0.6,-0.72
-6.212e-04,-0.66,-0.56
-6.193e-04,-0.62,-0.74
-6.174e-04,-0.58,-0.54
-6.155e-04,-0.68,-0.76
-6.136e-04,-0.68,-0.6
-6.116e-04,-0.64,-0.7
-6.097e-04,-0.58,-0.56
-6.078e-04,-0.66,-0.72
-6.059e-04,-0.62,-0.58
-6.040e-04,-0.64,-0.7
-6.020e-04,-0.62,-0.56
-6.001e-04,-0.6,-0.7
-5.982e-04,-0.6,-0.54
-5.963e-04,-0.64,-0.82
-5.944e-04,-0.74,-0.6
-5.924e-04,-0.76,-0.8
-5.905e-04,-0.74,-0.66
-5.886e-04,-0.66,-0.78
-5.867e-04,-0.74,-0.64
-5.848e-04,-0.7,-0.78
-5.828e-04,-0.68,-0.6
-5.809e-04,-0.62,-0.78
-5.790e-04,-0.72,-0.6
-5.771e-04,-0.66,-0.74
-5.752e-04,-0.66,-0.58
-5.732e-04,-0.64,-0.82
-5.713e-04,-0.72,-0.6
-5.694e-04,-0.76,-0.82
-5.675e-04,-0.72,-0.64
-5.656e-04,-0.74,-0.76
-5.636e-04,-0.6,-0.54
-5.617e-04,-0.62,-0.68
-5.598e-04,-0.58,-0.52
-5.579e-04,-0.62,-0.76
-5.560e-04,-0.64,-0.56
-5.540e-04,-0.74,-0.78
-5.521e-04,-0.68,-0.64
-5.502e-04,-0.72,-0.78
-5.483e-04,-0.68,-0.62
-5.464e-04,-0.72,-0.76
-5.444e-04,-0.72,-0.6
-5.425e-04,-0.66,-0.82
-5.406e-04,-0.8,-0.64
-5.387e-04,-0.7,-0.78
-5.368e-04,-0.74,-0.64
-5.348e-04,-0.68,-0.76
-5.329e-04,-0.7,-0.6
-5.310e-04,-0.62,-0.78
-5.291e-04,-0.7,-0.6
-5.272e-04,-0.7,-0.78
-5.252e-04,-0.7,-0.62
-5.233e-04,-0.64,-0.76
-5.214e-04,-0.68,-0.58
-5.195e-04,-0.64,-0.72
-5.176e-04,-0.62,-0.58
-5.156e-04,-0.7,-0.8
-5.137e-04,-0.68,-0.66
-5.118e-04,-0.8,-0.88
-5.099e-04,-0.76,-0.74
-5.080e-04,-0.82,-0.86
-5.060e-04,-0.74,-0.7
-5.041e-04,-0.76,-0.82
-5.022e-04,-0.74,-0.68
-5.003e-04,-0.7,-0.8
-4.984e-04,-0.72,-0.64
-4.964e-04,-0.7,-0.8
-4.945e-04,-0.74,-0.64
-4.926e-04,-0.7,-0.78
-4.907e-04,-0.72,-0.62
-4.888e-04,-0.7,-0.82
-4.868e-04,-0.74,-0.64
-4.849e-04,-0.64,-0.76
-4.830e-04,-0.72,-0.58
-4.811e-04,-0.6,-0.7
-4.792e-04,-0.66,-0.54
-4.772e-04,-0.62,-0.74
-4.753e-04,-0.7,-0.56
-4.734e-04,-0.6,-0.66
-4.715e-04,-0.6,-0.54
-4.696e-04,-0.6,-0.66
-4.676e-04,-0.58,-0.54
-4.657e-04,-0.64,-0.82
-4.638e-04,-0.7,-0.58
-4.619e-04,-0.78,-0.82
-4.600e-04,-0.72,-0.68
-4.580e-04,-0.76,-0.78
-4.561e-04,-0.7,-0.64
-4.542e-04,-0.7,-0.78
-4.523e-04,-0.7,-0.6
-4.504e-04,-0.74,-0.82
-4.484e-04,-0.68,-0.64
-4.465e-04,-0.72,-0.78
-4.446e-04,-0.7,-0.64
-4.427e-04,-0.66,-0.76
-4.408e-04,-0.68,-0.6
-4.388e-04,-0.64,-0.78
-4.369e-04,-0.74,-0.62
-4.350e-04,-0.66,-0.74
-4.331e-04,-0.68,-0.6
-4.312e-04,-0.62,-0.88
-4.292e-04,-0.72,-0.6
-4.273e-04,-0.8,-0.86
-4.254e-04,-0.72,-0.68
-4.235e-04,-0.74,-0.84
-4.216e-04,-0.76,-0.62
-4.196e-04,-0.66,-0.76
-4.177e-04,-0.66,-0.58
-4.158e-04,-0.68,-0.76
-4.139e-04,-0.64,-0.6
-4.120e-04,-0.66,-0.7
-4.100e-04,-0.56,-0.52
-4.081e-04,-0.62,-0.68
-4.062e-04,-0.58,-0.52
-4.043e-04,-0.64,-0.7
-4.024e-04,-0.62,-0.52
-4.004e-04,-0.56,-0.68
-3.985e-04,-0.58,-0.46
-3.966e-04,-0.6,-0.68
-3.947e-04,-0.66,-0.54
-3.927e-04,-0.58,-0.7
-3.908e-04,-0.66,-0.56
-3.889e-04,-0.58,-0.76
-3.870e-04,-0.68,-0.56
-3.851e-04,-0.66,-0.74
-3.831e-04,-0.68,-0.56
-3.812e-04,-0.62,-0.76
-3.793e-04,-0.7,-0.58
-3.774e-04,-0.66,-0.76
-3.755e-04,-0.66,-0.58
-3.735e-04,-0.66,-0.78
-3.716e-04,-0.7,-0.62
-3.697e-04,-0.68,-0.78
-3.678e-04,-0.68,-0.62
-3.659e-04,-0.72,-0.78
-3.639e-04,-0.64,-0.6
-3.620e-04,-0.74,-0.74
-3.601e-04,-0.64,-0.6
-3.582e-04,-0.7,-0.76
-3.563e-04,-0.66,-0.62
-3.543e-04,-0.7,-0.86
-3.524e-04,-0.78,-0.66
-3.505e-04,-0.76,-0.84
-3.486e-04,-0.72,-0.66
-3.467e-04,-0.78,-0.86
-3.447e-04,-0.8,-0.72
-3.428e-04,-0.78,-0.88
-3.409e-04,-0.84,-0.74
-3.390e-04,-0.76,-0.84
-3.371e-04,-0.8,-0.68
-3.351e-04,-0.72,-0.82
-3.332e-04,-0.74,-0.6
-3.313e-04,-0.62,-0.74
-3.294e-04,-0.68,-0.58
-3.275e-04,-0.68,-0.78
-3.255e-04,-0.7,-0.62
-3.236e-04,-0.74,-0.78
-3.217e-04,-0.7,-0.64
-3.198e-04,-0.72,-0.74
-3.179e-04,-0.62,-0.54
-3.159e-04,-0.62,-0.8
-3.140e-04,-0.66,-0.56
-3.121e-04,-0.76,-0.78
-3.102e-04,-0.66,-0.54
-3.083e-04,-0.6,-0.66
-3.063e-04,-0.58,-0.52
-3.044e-04,-0.64,-0.7
-3.025e-04,-0.6,-0.48
-3.006e-04,-0.56,-0.64
-2.987e-04,-0.6,-0.42
-2.967e-04,-0.46,-0.72
-2.948e-04,-0.64,-0.44
-2.929e-04,-0.64,-0.8
-2.910e-04,-0.76,-0.62
-2.891e-04,-0.72,-0.82
-2.871e-04,-0.78,-0.66
-2.852e-04,-0.7,-0.76
-2.833e-04,-0.7,-0.6
-2.814e-04,-0.64,-0.72
-2.795e-04,-0.7,-0.58
-2.775e-04,-0.64,-0.72
-2.756e-04,-0.68,-0.56
-2.737e-04,-0.64,-0.74
-2.718e-04,-0.62,-0.58
-2.699e-04,-0.72,-0.76
-2.679e-04,-0.64,-0.6
-2.660e-04,-0.7,-0.72
-2.641e-04,-0.62,-0.58
-2.622e-04,-0.7,-0.76
-2.603e-04,-0.66,-0.62
-2.583e-04,-0.72,-0.8
-2.564e-04,-0.72,-0.66
-2.545e-04,-0.7,-0.82
-2.526e-04,-0.74,-0.6
-2.507e-04,-0.64,-0.72
-2.487e-04,-0.66,-0.56
-2.468e-04,-0.58,-0.74
-2.449e-04,-0.68,-0.54
-2.430e-04,-0.66,-0.76
-2.411e-04,-0.68,-0.6
-2.391e-04,-0.68,-0.86
-2.372e-04,-0.8,-0.68
-2.353e-04,-0.72,-0.82
-2.334e-04,-0.68,-0.6
-2.315e-04,-0.64,-0.78
-2.295e-04,-0.7,-0.62
-2.276e-04,-0.7,-0.82
-2.257e-04,-0.76,-0.62
-2.238e-04,-0.68,-0.74
-2.219e-04,-0.66,-0.6
-2.199e-04,-0.7,-0.76
-2.180e-04,-0.64,-0.62
-2.161e-04,-0.76,-0.8
-2.142e-04,-0.66,-0.66
-2.123e-04,-0.74,-0.78
-2.103e-04,-0.62,-0.58
-2.084e-04,-0.66,-0.76
-2.065e-04,-0.6,-0.54
-2.046e-04,-0.74,-0.86
-2.027e-04,-0.78,-0.64
-2.007e-04,-0.72,-0.78
-1.988e-04,-0.68,-0.62
-1.969e-04,-0.7,-0.78
-1.950e-04,-0.66,-0.54
-1.931e-04,-0.52,-0.74
-1.911e-04,-0.7,-0.5
-1.892e-04,-0.64,-0.72
-1.873e-04,-0.7,-0.58
-1.854e-04,-0.62,-0.78
-1.835e-04,-0.72,-0.58
-1.815e-04,-0.72,-0.8
-1.796e-04,-0.7,-0.64
-1.777e-04,-0.72,-0.8
-1.758e-04,-0.72,-0.68
-1.739e-04,-0.76,-0.8
-1.719e-04,-0.66,-0.62
-1.700e-04,-0.78,-0.86
-1.681e-04,-0.7,-0.62
-1.662e-04,-0.76,-0.78
-1.643e-04,-0.68,-0.58
-1.623e-04,-0.66,-0.68
-1.604e-04,-0.58,-0.54
-1.585e-04,-0.64,-0.76
-1.566e-04,-0.68,-0.56
-1.547e-04,-0.58,-0.72
-1.527e-04,-0.6,-0.54
-1.508e-04,-0.66,-0.84
-1.489e-04,-0.72,-0.6
-1.470e-04,-0.74,-0.84
-1.451e-04,-0.78,-0.68
-1.431e-04,-0.68,-0.76
-1.412e-04,-0.64,-0.58
-1.393e-04,-0.62,-0.76
-1.374e-04,-0.72,-0.6
-1.355e-04,-0.68,-0.76
-1.335e-04,-0.68,-0.6
-1.316e-04,-0.66,-0.72
-1.297e-04,-0.62,-0.56
-1.278e-04,-0.68,-0.78
-1.259e-04,-0.68,-0.62
-1.239e-04,-0.7,-0.8
-1.220e-04,-0.72,-0.64
-1.201e-04,-0.74,-0.76
-1.182e-04,-0.6,-0.56
-1.163e-04,-0.62,-0.68
-1.143e-04,-0.54,-0.54
-1.124e-04,-0.66,-0.7
-1.105e-04,-0.64,-0.56
-1.086e-04,-0.66,-0.76
-1.067e-04,-0.62,-0.56
-1.047e-04,-0.7,-0.76
-1.028e-04,-0.6,-0.56
-1.009e-04,-0.7,-0.78
-9.897e-05,-0.72,-0.62
-9.705e-05,-0.66,-0.82
-9.513e-05,-0.76,-0.62
-9.321e-05,-0.62,-0.82
-9.129e-05,-0.76,-0.6
-8.937e-05,-0.72,-0.82
-8.745e-05,-0.72,-0.62
-8.553e-05,-0.64,-0.74
-8.361e-05,-0.62,-0.54
-8.169e-05,-0.6,-0.76
-7.977e-05,-0.68,-0.56
-7.785e-05,-0.7,-0.76
-7.593e-05,-0.68,-0.62
-7.401e-05,-0.68,-0.76
-7.209e-05,-0.6,-0.52
-7.017e-05,-0.58,-0.62
-6.825e-05,-0.48,-0.46
-6.633e-05,-0.58,-0.76
-6.441e-05,-0.6,-0.5
-6.249e-05,-0.7,-0.76
-6.057e-05,-0.66,-0.64
-5.865e-05,-0.68,-0.74
-5.673e-05,-0.6,-0.56
-5.481e-05,-0.66,-0.74
-5.289e-05,-0.66,-0.58
-5.097e-05,-0.64,-0.76
-4.905e-05,-0.68,-0.56
-4.713e-05,-0.58,-0.74
-4.521e-05,-0.7,-0.54
-4.329e-05,-0.66,-0.74
-4.137e-05,-0.68,-0.56
-3.945e-05,-0.56,-0.74
-3.753e-05,-0.66,-0.52
-3.561e-05,-0.68,-0.78
-3.369e-05,-0.76,-0.64
-3.177e-05,-0.7,-0.76
-2.985e-05,-0.66,-0.54
-2.793e-05,-0.62,-0.76
-2.601e-05,-0.66,-0.54
-2.409e-05,-0.74,-0.84
-2.217e-05,-0.74,-0.68
-2.025e-05,-0.76,-0.8
-1.833e-05,-0.7,-0.66
-1.641e-05,-0.74,-0.82
-1.449e-05,-0.7,-0.56
-1.257e-05,-0.64,-0.66
-1.065e-05,-0.56,-0.5
-8.725e-06,-0.6,-0.74
-6.805e-06,-0.66,-0.54
-4.885e-06,-0.68,-0.78
-2.965e-06,-0.72,-0.64
-1.045e-06,-0.68,-0.74
8.756e-07,-0.64,-0.56
2.796e-06,-0.64,-0.92
4.716e-06,-0.72,-0.6
6.636e-06,-0.94,-2.38
8.556e-06,-1.88,-0.9
1.048e-05,-2.38,-2.38
1.240e-05,-2.38,-2.38
1.432e-05,-2.38,-2.38
1.624e-05,-2.38,-2.38
1.816e-05,-2.38,-2.38
2.008e-05,-2.38,-2.38
2.200e-05,-2.38,-2.38
2.392e-05,-2.38,-2.38
2.584e-05,-2.38,-2.38
2.776e-05,-2.38,-2.38
2.968e-05,-2.38,-2.38
3.160e-05,-2.38,-2.38
3.352e-05,-2.38,-2.38
3.544e-05,-2.38,-2.38
3.736e-05,-2.38,-2.38
3.928e-05,-2.38,-2.38
4.120e-05,-2.38,-2.38
4.312e-05,-2.38,-2.38
4.504e-05,-2.38,-2.38
4.696e-05,-2.38,-2.38
4.888e-05,-2.38,-2.38
5.080e-05,-2.38,-2.38
5.272e-05,-2.38,-2.38
5.464e-05,-2.38,-2.38
5.656e-05,-2.38,-2.38
5.848e-05,-2.38,-1.88
6.040e-05,-1.88,-1.9
6.232e-05,-1.3,-0.92
6.424e-05,-0.94,-1
6.616e-05,-0.8,-0.62
6.808e-05,-0.68,-0.74
7.000e-05,-0.58,-0.42
7.192e-05,-0.48,-0.6
7.384e-05,-0.48,-0.4
7.576e-05,-0.56,-0.78
7.768e-05,-0.6,-0.5
7.960e-05,-0.76,-0.78
8.152e-05,-0.64,-0.64
8.344e-05,-0.7,-0.74
8.536e-05,-0.58,-0.56
8.728e-05,-0.66,-0.74
8.920e-05,-0.6,-0.58
9.112e-05,-0.68,-0.74
9.304e-05,-0.64,-0.52
9.496e-05,-0.6,-0.72
9.688e-05,-0.66,-0.56
9.880e-05,-0.6,-0.74
1.007e-04,-0.68,-0.56
1.026e-04,-0.64,-0.74
1.046e-04,-0.7,-0.6
1.065e-04,-0.62,-0.76
1.084e-04,-0.72,-0.6
1.103e-04,-0.64,-0.74
1.122e-04,-0.66,-0.6
1.142e-04,-0.68,-0.8
1.161e-04,-0.72,-0.62
1.180e-04,-0.7,-0.74
1.199e-04,-0.66,-0.58
1.218e-04,-0.68,-0.78
1.238e-04,-0.7,-0.6
1.257e-04,-0.68,-0.72
1.276e-04,-0.6,-0.58
1.295e-04,-0.68,-0.8
1.314e-04,-0.72,-0.62
1.334e-04,-0.76,-0.82
1.353e-04,-0.72,-0.68
1.372e-04,-0.78,-0.96
1.391e-04,-0.86,-0.72
1.410e-04,-0.92,-0.96
1.430e-04,-0.82,-0.74
1.449e-04,-0.78,-0.86
1.468e-04,-0.76,-0.68
1.487e-04,-0.72,-0.78
1.506e-04,-0.72,-0.64
1.526e-04,-0.68,-0.76
1.545e-04,-0.7,-0.62
1.564e-04,-0.62,-0.76
1.583e-04,-0.68,-0.58
1.602e-04,-0.66,-0.74
1.622e-04,-0.7,-0.62
1.641e-04,-0.66,-0.74
1.660e-04,-0.7,-0.6
1.679e-04,-0.7,-0.82
1.698e-04,-0.72,-0.64
1.718e-04,-0.72,-0.82
1.737e-04,-0.72,-0.7
1.756e-04,-0.74,-0.8
1.775e-04,-0.72,-0.66
1.794e-04,-0.76,-0.8
1.814e-04,-0.66,-0.64
1.833e-04,-0.76,-0.82
1.852e-04,-0.7,-0.68
1.871e-04,-0.74,-0.8
1.890e-04,-0.72,-0.64
1.910e-04,-0.66,-0.76
1.929e-04,-0.58,-0.52
1.948e-04,-0.7,-0.86
1.967e-04,-0.78,-0.64
1.986e-04,-0.78,-0.9
2.006e-04,-0.8,-0.66
2.025e-04,-0.66,-0.8
2.044e-04,-0.78,-0.64
2.063e-04,-0.66,-0.74
2.082e-04,-0.68,-0.6
2.102e-04,-0.64,-0.72
2.121e-04,-0.68,-0.6
2.140e-04,-0.66,-0.8
2.159e-04,-0.7,-0.6
2.178e-04,-0.76,-0.8
2.198e-04,-0.72,-0.64
2.217e-04,-0.74,-0.84
2.236e-04,-0.7,-0.66
2.255e-04,-0.82,-0.84
2.275e-04,-0.72,-0.68
2.294e-04,-0.76,-0.8
2.313e-04,-0.72,-0.66
2.332e-04,-0.76,-0.78
2.351e-04,-0.7,-0.62
2.371e-04,-0.68,-0.86
2.390e-04,-0.74,-0.58
2.409e-04,-0.78,-0.86
2.428e-04,-0.8,-0.68
2.447e-04,-0.72,-0.82
2.467e-04,-0.72,-0.64
2.486e-04,-0.76,-0.84
2.505e-04,-0.82,-0.62
2.524e-04,-0.64,-0.72
2.543e-04,-0.7,-0.6
2.563e-04,-0.62,-0.72
2.582e-04,-0.66,-0.58
2.601e-04,-0.6,-0.82
2.620e-04,-0.68,-0.58
2.639e-04,-0.8,-0.84
2.659e-04,-0.74,-0.64
2.678e-04,-0.72,-0.76
2.697e-04,-0.66,-0.62
2.716e-04,-0.7,-0.74
2.735e-04,-0.56,-0.54
2.755e-04,-0.66,-0.72
2.774e-04,-0.62,-0.58
2.793e-04,-0.72,-0.9
2.812e-04,-0.74,-0.64
2.831e-04,-0.8,-0.86
2.851e-04,-0.68,-0.68
2.870e-04,-0.74,-0.84
2.889e-04,-0.78,-0.68
2.908e-04,-0.76,-0.9
2.927e-04,-0.84,-0.72
2.947e-04,-0.78,-0.86
2.966e-04,-0.74,-0.6
2.985e-04,-0.64,-0.76
3.004e-04,-0.7,-0.54
3.023e-04,-0.54,-0.72
3.043e-04,-0.66,-0.52
3.062e-04,-0.66,-0.74
3.081e-04,-0.68,-0.58
3.100e-04,-0.66,-0.8
3.119e-04,-0.64,-0.58
3.139e-04,-0.74,-0.8
3.158e-04,-0.64,-0.56
3.177e-04,-0.64,-0.72
3.196e-04,-0.62,-0.58
3.215e-04,-0.68,-0.74
3.235e-04,-0.62,-0.6
3.254e-04,-0.72,-0.78
3.273e-04,-0.7,-0.64
3.292e-04,-0.72,-0.74
3.311e-04,-0.58,-0.42
3.331e-04,-0.5,-0.66
3.350e-04,-0.56,-0.42
3.369e-04,-0.64,-0.78
3.388e-04,-0.68,-0.58
3.407e-04,-0.66,-0.74
3.427e-04,-0.66,-0.52
3.446e-04,-0.56,-0.64
3.465e-04,-0.6,-0.48
3.484e-04,-0.52,-0.72
3.503e-04,-0.66,-0.5
3.523e-04,-0.6,-0.78
3.542e-04,-0.7,-0.6
3.561e-04,-0.68,-0.82
3.580e-04,-0.76,-0.66
3.599e-04,-0.74,-0.82
3.619e-04,-0.76,-0.7
3.638e-04,-0.76,-0.82
3.657e-04,-0.66,-0.56
3.676e-04,-0.66,-0.74
3.695e-04,-0.58,-0.54
3.715e-04,-0.6,-0.8
3.734e-04,-0.7,-0.54
3.753e-04,-0.76,-0.76
3.772e-04,-0.64,-0.62
3.791e-04,-0.76,-0.82
3.811e-04,-0.74,-0.66
3.830e-04,-0.76,-0.86
3.849e-04,-0.74,-0.68
3.868e-04,-0.82,-0.88
3.887e-04,-0.82,-0.76
3.907e-04,-0.8,-0.86
3.926e-04,-0.74,-0.64
3.945e-04,-0.66,-0.78
3.964e-04,-0.74,-0.64
3.983e-04,-0.62,-0.7
4.003e-04,-0.66,-0.56
4.022e-04,-0.6,-0.7
4.041e-04,-0.66,-0.56
4.060e-04,-0.66,-0.76
4.079e-04,-0.72,-0.62
4.099e-04,-0.66,-0.76
4.118e-04,-0.66,-0.6
4.137e-04,-0.7,-0.74
4.156e-04,-0.6,-0.56
4.175e-04,-0.66,-0.74
4.195e-04,-0.62,-0.56
4.214e-04,-0.66,-0.72
4.233e-04,-0.58,-0.58
4.252e-04,-0.66,-0.68
4.271e-04,-0.54,-0.5
4.291e-04,-0.58,-0.64
4.310e-04,-0.54,-0.5
4.329e-04,-0.6,-0.76
4.348e-04,-0.66,-0.52
4.367e-04,-0.72,-0.78
4.387e-04,-0.72,-0.66
4.406e-04,-0.72,-0.78
4.425e-04,-0.72,-0.6
4.444e-04,-0.62,-0.66
4.463e-04,-0.54,-0.44
4.483e-04,-0.46,-0.68
4.502e-04,-0.6,-0.46
4.521e-04,-0.58,-0.76
4.540e-04,-0.68,-0.58
4.559e-04,-0.68,-0.8
4.579e-04,-0.74,-0.66
4.598e-04,-0.74,-0.82
4.617e-04,-0.76,-0.68
4.636e-04,-0.74,-0.82
4.655e-04,-0.72,-0.62
4.675e-04,-0.7,-0.74
4.694e-04,-0.64,-0.6
4.713e-04,-0.68,-0.7
4.732e-04,-0.62,-0.52
4.751e-04,-0.6,-0.64
4.771e-04,-0.52,-0.46
4.790e-04,-0.6,-0.64
4.809e-04,-0.54,-0.5
4.828e-04,-0.62,-0.66
4.847e-04,-0.58,-0.52
4.867e-04,-0.6,-0.7
4.886e-04,-0.6,-0.54
4.905e-04,-0.62,-0.7
4.924e-04,-0.66,-0.54
4.943e-04,-0.54,-0.7
4.963e-04,-0.66,-0.52
4.982e-04,-0.58,-0.7
5.001e-04,-0.64,-0.56
5.020e-04,-0.62,-0.76
5.039e-04,-0.7,-0.58
5.059e-04,-0.7,-0.76
5.078e-04,-0.7,-0.6
5.097e-04,-0.7,-0.78
5.116e-04,-0.64,-0.54
5.135e-04,-0.6,-0.66
5.155e-04,-0.58,-0.52
5.174e-04,-0.62,-0.72
5.193e-04,-0.6,-0.54
5.212e-04,-0.7,-0.74
5.231e-04,-0.56,-0.54
5.251e-04,-0.64,-0.66
5.270e-04,-0.54,-0.5
5.289e-04,-0.6,-0.76
5.308e-04,-0.68,-0.56
5.327e-04,-0.68,-0.74
5.347e-04,-0.66,-0.58
5.366e-04,-0.6,-0.72
5.385e-04,-0.68,-0.56
5.404e-04,-0.62,-0.68
5.424e-04,-0.56,-0.48
5.443e-04,-0.58,-0.8
5.462e-04,-0.74,-0.56
5.481e-04,-0.72,-0.82
5.500e-04,-0.76,-0.62
5.520e-04,-0.6,-0.68
5.539e-04,-0.62,-0.5
5.558e-04,-0.52,-0.7
5.577e-04,-0.64,-0.5
5.596e-04,-0.66,-0.8
5.616e-04,-0.68,-0.62
5.635e-04,-0.74,-0.78
5.654e-04,-0.6,-0.58
5.673e-04,-0.7,-0.82
5.692e-04,-0.68,-0.62
5.712e-04,-0.78,-0.84
5.731e-04,-0.74,-0.7
5.750e-04,-0.84,-0.88
5.769e-04,-0.76,-0.72
5.788e-04,-0.78,-0.82
5.808e-04,-0.74,-0.68
5.827e-04,-0.74,-0.78
5.846e-04,-0.68,-0.64
5.865e-04,-0.72,-0.78
5.884e-04,-0.6,-0.54
5.904e-04,-0.56,-0.64
5.923e-04,-0.6,-0.5
5.942e-04,-0.54,-0.66
5.961e-04,-0.64,-0.5
5.980e-04,-0.52,-0.72
6.000e-04,-0.66,-0.52
6.019e-04,-0.66,-0.78
6.038e-04,-0.68,-0.6
6.057e-04,-0.72,-0.8
6.076e-04,-0.72,-0.6
6.096e-04,-0.66,-0.72
6.115e-04,-0.64,-0.56
6.134e-04,-0.64,-0.74
6.153e-04,-0.64,-0.58
6.172e-04,-0.7,-0.74
6.192e-04,-0.64,-0.62
6.211e-04,-0.74,-0.78
6.230e-04,-0.66,-0.62
6.249e-04,-0.76,-0.86
6.268e-04,-0.76,-0.7
6.288e-04,-0.76,-0.84
6.307e-04,-0.72,-0.7
6.326e-04,-0.76,-0.8
6.345e-04,-0.64,-0.56
6.364e-04,-0.6,-0.74
6.384e-04,-0.68,-0.56
6.403e-04,-0.62,-0.74
6.422e-04,-0.7,-0.6
6.441e-04,-0.66,-0.8
6.460e-04,-0.74,-0.62
6.480e-04,-0.68,-0.82
6.499e-04,-0.74,-0.64
6.518e-04,-0.72,-0.82
6.537e-04,-0.76,-0.66
6.556e-04,-0.72,-0.8
6.576e-04,-0.72,-0.62
6.595e-04,-0.7,-0.82
6.614e-04,-0.68,-0.64
6.633e-04,-0.8,-0.84
6.652e-04,-0.76,-0.7
6.672e-04,-0.78,-0.78
6.691e-04,-0.6,-0.54
6.710e-04,-0.62,-0.66
6.729e-04,-0.56,-0.52
6.748e-04,-0.66,-0.78
6.768e-04,-0.64,-0.56
6.787e-04,-0.74,-0.78
6.806e-04,-0.64,-0.6
6.825e-04,-0.66,-0.7
6.844e-04,-0.62,-0.56
6.864e-04,-0.56,-0.72
6.883e-04,-0.64,-0.52
6.902e-04,-0.64,-0.82
6.921e-04,-0.72,-0.6
6.940e-04,-0.74,-0.82
6.960e-04,-0.8,-0.7
6.979e-04,-0.7,-0.78
6.998e-04,-0.72,-0.64
7.017e-04,-0.68,-0.78
7.036e-04,-0.64,-0.56
7.056e-04,-0.64,-0.82
7.075e-04,-0.7,-0.6
7.094e-04,-0.74,-0.78
7.113e-04,-0.64,-0.58
7.132e-04,-0.7,-0.8
7.152e-04,-0.66,-0.64
7.171e-04,-0.8,-0.88
7.190e-04,-0.78,-0.74
7.209e-04,-0.82,-0.86
7.228e-04,-0.68,-0.64
7.248e-04,-0.7,-0.8
7.267e-04,-0.72,-0.64
7.286e-04,-0.72,-0.78
7.305e-04,-0.64,-0.6
7.324e-04,-0.64,-0.7
7.344e-04,-0.58,-0.5
7.363e-04,-0.64,-0.78
7.382e-04,-0.7,-0.6
7.401e-04,-0.7,-0.82
7.420e-04,-0.78,-0.62
7.440e-04,-0.6,-0.7
7.459e-04,-0.68,-0.56
7.478e-04,-0.58,-0.76
7.497e-04,-0.74,-0.58
7.516e-04,-0.7,-0.8
7.536e-04,-0.74,-0.64
7.555e-04,-0.72,-0.78
7.574e-04,-0.62,-0.48
7.593e-04,-0.56,-0.6
7.612e-04,-0.48,-0.44
7.632e-04,-0.54,-0.7
7.651e-04,-0.58,-0.5
7.670e-04,-0.7,-0.78
7.689e-04,-0.68,-0.62
7.708e-04,-0.7,-0.78
7.728e-04,-0.7,-0.62
7.747e-04,-0.74,-0.76
7.766e-04,-0.64,-0.6
7.785e-04,-0.72,-0.76
7.804e-04,-0.66,-0.62
7.824e-04,-0.7,-0.8
7.843e-04,-0.7,-0.62
7.862e-04,-0.7,-0.76
7.881e-04,-0.7,-0.6
7.900e-04,-0.62,-0.74
7.920e-04,-0.7,-0.58
7.939e-04,-0.66,-0.8
7.958e-04,-0.78,-0.6
7.977e-04,-0.6,-0.7
7.996e-04,-0.64,-0.54
8.016e-04,-0.58,-0.78
8.035e-04,-0.66,-0.56
8.054e-04,-0.74,-0.82
8.073e-04,-0.68,-0.64
8.092e-04,-0.76,-0.8
8.112e-04,-0.72,-0.62
8.131e-04,-0.7,-0.74
8.150e-04,-0.6,-0.52
8.169e-04,-0.62,-0.82
8.188e-04,-0.7,-0.56
8.208e-04,-0.8,-0.88
8.227e-04,-0.76,-0.68
8.246e-04,-0.72,-0.8
8.265e-04,-0.7,-0.64
8.284e-04,-0.7,-0.76
8.304e-04,-0.7,-0.56
8.323e-04,-0.56,-0.76
8.342e-04,-0.56,-0.48
8.361e-04,-0.68,-0.78
8.380e-04,-0.7,-0.6
8.400e-04,-0.6,-0.74
8.419e-04,-0.7,-0.54
8.438e-04,-0.54,-0.62
8.457e-04,-0.56,-0.48
8.476e-04,-0.54,-0.62
8.496e-04,-0.58,-0.46
8.515e-04,-0.5,-0.64
8.534e-04,-0.52,-0.44
8.553e-04,-0.6,-0.76
8.573e-04,-0.7,-0.56
8.592e-04,-0.62,-0.68
8.611e-04,-0.62,-0.54
8.630e-04,-0.66,-0.7
8.649e-04,-0.6,-0.58
8.669e-04,-0.68,-0.74
8.688e-04,-0.62,-0.6
8.707e-04,-0.7,-0.72
8.726e-04,-0.5,-0.48
8.745e-04,-0.58,-0.64
8.765e-04,-0.5,-0.48
8.784e-04,-0.58,-0.76
8.803e-04,-0.66,-0.54
8.822e-04,-0.68,-0.78
8.841e-04,-0.72,-0.64
8.861e-04,-0.72,-0.8
8.880e-04,-0.72,-0.64
8.899e-04,-0.72,-0.9
8.918e-04,-0.86,-0.7
8.937e-04,-0.78,-0.86
8.957e-04,-0.84,-0.7
8.976e-04,-0.7,-0.84
8.995e-04,-0.76,-0.68
9.014e-04,-0.74,-0.8
9.033e-04,-0.66,-0.54
9.053e-04,-0.58,-0.68
9.072e-04,-0.6,-0.54
9.091e-04,-0.64,-0.7
9.110e-04,-0.58,-0.54
9.129e-04,-0.68,-0.76
9.149e-04,-0.62,-0.56
9.168e-04,-0.72,-0.74
9.187e-04,-0.62,-0.6
9.206e-04,-0.72,-0.74
9.225e-04,-0.66,-0.6
9.245e-04,-0.66,-0.78
9.264e-04,-0.68,-0.58
9.283e-04,-0.72,-0.78
9.302e-04,-0.7,-0.56
9.321e-04,-0.58,-0.68
9.341e-04,-0.62,-0.54
9.360e-04,-0.56,-0.74
9.379e-04,-0.58,-0.5
9.398e-04,-0.66,-0.76
9.417e-04,-0.7,-0.62
9.437e-04,-0.64,-0.78
9.456e-04,-0.7,-0.58
9.475e-04,-0.72,-0.82
9.494e-04,-0.78,-0.66
9.513e-04,-0.74,-0.82
9.533e-04,-0.76,-0.68
9.552e-04,-0.74,-0.8
9.571e-04,-0.66,-0.6
9.590e-04,-0.66,-0.72
9.609e-04,-0.58,-0.52
9.629e-04,-0.7,-0.72
9.648e-04,-0.58,-0.56
9.667e-04,-0.66,-0.72
9.686e-04,-0.62,-0.58
9.705e-04,-0.66,-0.74
9.725e-04,-0.64,-0.56
9.744e-04,-0.58,-0.68
9.763e-04,-0.56,-0.52
9.782e-04,-0.62,-0.82
9.801e-04,-0.74,-0.58
9.821e-04,-0.76,-0.82
9.840e-04,-0.72,-0.58
9.859e-04,-0.6,-0.72
9.878e-04,-0.66,-0.58
9.897e-04,-0.62,-0.72
9.917e-04,-0.68,-0.56
9.936e-04,-0.64,-0.74
9.955e-04,-0.68,-0.56
9.974e-04,-0.58,-0.74
9.993e-04,-0.66,-0.56
1.001e-03,-0.68,-0.76
1.003e-03,-0.68,-0.56
1.005e-03,-0.62,-0.68
1.007e-03,-0.6,-0.54
1.009e-03,-0.68,-0.7
1.011e-03,-0.58,-0.54
1.013e-03,-0.66,-0.7
1.015e-03,-0.58,-0.54
1.017e-03,-0.64,-0.72
1.019e-03,-0.56,-0.52
1.020e-03,-0.72,-0.76
1.022e-03,-0.64,-0.62
1.024e-03,-0.72,-0.76
1.026e-03,-0.68,-0.62
1.028e-03,-0.68,-0.7
1.030e-03,-0.64,-0.56
1.032e-03,-0.62,-0.74
1.034e-03,-0.66,-0.58
1.036e-03,-0.66,-0.8
1.038e-03,-0.76,-0.64
1.040e-03,-0.64,-0.8
1.042e-03,-0.78,-0.62
1.044e-03,-0.7,-0.82
1.045e-03,-0.76,-0.64
1.047e-03,-0.7,-0.82
1.049e-03,-0.76,-0.66
1.051e-03,-0.72,-0.78
1.053e-03,-0.72,-0.62
1.055e-03,-0.66,-0.72
1.057e-03,-0.64,-0.58
1.059e-03,-0.66,-0.72
1.061e-03,-0.6,-0.56
1.063e-03,-0.68,-0.72
1.065e-03,-0.62,-0.6
1.067e-03,-0.7,-0.74
1.068e-03,-0.58,-0.56
1.070e-03,-0.66,-0.74
1.072e-03,-0.66,-0.58
1.074e-03,-0.6,-0.7
1.076e-03,-0.58,-0.5
1.078e-03,-0.64,-0.78
1.080e-03,-0.68,-0.6
1.082e-03,-0.66,-0.8
1.084e-03,-0.66,-0.58
1.086e-03,-0.7,-0.78
1.088e-03,-0.62,-0.56
1.090e-03,-0.66,-0.78
1.092e-03,-0.72,-0.64
1.093e-03,-0.64,-0.7
1.095e-03,-0.62,-0.54
1.097e-03,-0.58,-0.72
1.099e-03,-0.66,-0.56
1.101e-03,-0.66,-0.74
1.103e-03,-0.68,-0.6
1.105e-03,-0.66,-0.74
1.107e-03,-0.68,-0.58
1.109e-03,-0.68,-0.7
1.111e-03,-0.54,-0.52
1.113e-03,-0.6,-0.76
1.115e-03,-0.6,-0.54
1.116e-03,-0.74,-0.82
1.118e-03,-0.72,-0.66
1.120e-03,-0.8,-0.82
1.122e-03,-0.72,-0.64
1.124e-03,-0.7,-0.74
1.126e-03,-0.58,-0.52
1.128e-03,-0.58,-0.68
1.130e-03,-0.6,-0.52
1.132e-03,-0.6,-0.72
1.134e-03,-0.68,-0.56
1.136e-03,-0.58,-0.68
1.138e-03,-0.62,-0.52
1.140e-03,-0.6,-0.74
1.141e-03,-0.68,-0.54
1.143e-03,-0.58,-0.7
1.145e-03,-0.68,-0.54
1.147e-03,-0.6,-0.72
1.149e-03,-0.62,-0.54
1.151e-03,-0.66,-0.74
1.153e-03,-0.66,-0.58
1.155e-03,-0.66,-0.7
1.157e-03,-0.62,-0.54
1.159e-03,-0.62,-0.64
1.161e-03,-0.48,-0.48
1.163e-03,-0.62,-0.64
1.164e-03,-0.5,-0.46
1.166e-03,-0.62,-0.76
1.168e-03,-0.58,-0.54
1.170e-03,-0.72,-0.76
1.172e-03,-0.68,-0.62
1.174e-03,-0.66,-0.76
1.176e-03,-0.66,-0.6
1.178e-03,-0.7,-0.78
1.180e-03,-0.72,-0.58
1.182e-03,-0.6,-0.7
1.184e-03,-0.64,-0.52
1.186e-03,-0.58,-0.68
1.188e-03,-0.64,-0.54
1.189e-03,-0.58,-0.74
1.191e-03,-0.68,-0.54
1.193e-03,-0.66,-0.72
1.195e-03,-0.68,-0.56
1.197e-03,-0.6,-0.66
1.199e-03,-0.58,-0.46
1.201e-03,-0.52,-0.6
1.203e-03,-0.52,-0.44
1.205e-03,-0.5,-0.64
1.207e-03,-0.5,-0.44
1.209e-03,-0.62,-0.68
1.211e-03,-0.54,-0.5
1.212e-03,-0.62,-0.74
1.214e-03,-0.64,-0.56
1.216e-03,-0.7,-0.72
1.218e-03,-0.58,-0.54
1.220e-03,-0.64,-0.72
1.222e-03,-0.64,-0.56
1.224e-03,-0.64,-0.7
1.226e-03,-0.58,-0.54
1.228e-03,-0.64,-0.74
1.230e-03,-0.68,-0.6
1.232e-03,-0.62,-0.68
1.234e-03,-0.58,-0.48
1.236e-03,-0.58,-0.7
1.237e-03,-0.64,-0.52
1.239e-03,-0.6,-0.76
1.241e-03,-0.72,-0.58
1.243e-03,-0.64,-0.72
1.245e-03,-0.66,-0.58
1.247e-03,-0.6,-0.7
1.249e-03,-0.6,-0.56
1.251e-03,-0.68,-0.84
1.253e-03,-0.74,-0.64
1.255e-03,-0.76,-0.78
1.257e-03,-0.7,-0.64
1.259e-03,-0.72,-0.78
1.260e-03,-0.68,-0.64
1.262e-03,-0.72,-0.8
1.264e-03,-0.68,-0.6
1.266e-03,-0.68,-0.8
1.268e-03,-0.7,-0.62
1.270e-03,-0.68,-0.74
1.272e-03,-0.66,-0.58
1.274e-03,-0.68,-0.76
1.276e-03,-0.7,-0.62
1.278e-03,-0.66,-0.74
1.280e-03,-0.66,-0.58
1.282e-03,-0.62,-0.8
1.284e-03,-0.7,-0.6
1.285e-03,-0.72,-0.78
1.287e-03,-0.72,-0.6
1.289e-03,-0.64,-0.76
1.291e-03,-0.72,-0.6
1.293e-03,-0.68,-0.84
1.295e-03,-0.82,-0.66
1.297e-03,-0.74,-0.8
1.299e-03,-0.68,-0.62
1.301e-03,-0.7,-0.74
1.303e-03,-0.62,-0.54
1.305e-03,-0.62,-0.68
1.307e-03,-0.58,-0.54
1.308e-03,-0.64,-0.66
1.310e-03,-0.54,-0.48
1.312e-03,-0.54,-0.62
1.314e-03,-0.52,-0.46
1.316e-03,-0.6,-0.7
1.318e-03,-0.56,-0.5
1.320e-03,-0.66,-0.72
1.322e-03,-0.62,-0.56
1.324e-03,-0.66,-0.72
1.326e-03,-0.68,-0.58
1.328e-03,-0.6,-0.7
1.330e-03,-0.62,-0.54
1.332e-03,-0.62,-0.76
1.333e-03,-0.72,-0.6
1.335e-03,-0.62,-0.74
1.337e-03,-0.7,-0.5
1.339e-03,-0.5,-0.7
1.341e-03,-0.64,-0.5
1.343e-03,-0.62,-0.78
1.345e-03,-0.7,-0.6
1.347e-03,-0.68,-0.74
1.349e-03,-0.66,-0.54
1.351e-03,-0.58,-0.68
1.353e-03,-0.6,-0.5
1.355e-03,-0.6,-0.64
1.356e-03,-0.52,-0.48
1.358e-03,-0.6,-0.7
1.360e-03,-0.6,-0.54
1.362e-03,-0.68,-0.72
1.364e-03,-0.62,-0.56
1.366e-03,-0.66,-0.78
1.368e-03,-0.66,-0.58
1.370e-03,-0.76,-0.9
1.372e-03,-0.78,-0.68
1.374e-03,-0.86,-0.9
1.376e-03,-0.72,-0.58
1.378e-03,-0.6,-0.74
1.380e-03,-0.66,-0.58
1.381e-03,-0.66,-0.76
1.383e-03,-0.7,-0.56
1.385e-03,-0.58,-0.78
1.387e-03,-0.66,-0.54
1.389e-03,-0.7,-0.8
1.391e-03,-0.78,-0.62
1.393e-03,-0.66,-0.74
1.395e-03,-0.66,-0.54
1.397e-03,-0.6,-0.66
1.399e-03,-0.54,-0.42
1.401e-03,-0.52,-0.68
1.403e-03,-0.58,-0.48
1.404e-03,-0.64,-0.68
1.406e-03,-0.54,-0.44
1.408e-03,-0.52,-0.6
1.410e-03,-0.48,-0.42
1.412e-03,-0.54,-0.66
1.414e-03,-0.5,-0.44
1.416e-03,-0.62,-0.74
1.418e-03,-0.64,-0.58
1.420e-03,-0.68,-0.76
1.422e-03,-0.66,-0.6
1.424e-03,-0.66,-0.74
1.426e-03,-0.68,-0.58
1.428e-03,-0.62,-0.72
1.429e-03,-0.68,-0.6
1.431e-03,-0.6,-0.72
1.433e-03,-0.68,-0.58
1.435e-03,-0.62,-0.7
1.437e-03,-0.62,-0.52
1.439e-03,-0.6,-0.72
1.441e-03,-0.66,-0.58
1.443e-03,-0.6,-0.76
1.445e-03,-0.68,-0.54
1.447e-03,-0.7,-0.82
1.449e-03,-0.72,-0.68
1.451e-03,-0.78,-0.82
1.452e-03,-0.68,-0.6
1.454e-03,-0.7,-0.8
1.456e-03,-0.68,-0.62
1.458e-03,-0.78,-0.82
1.460e-03,-0.66,-0.58
1.462e-03,-0.64,-0.7
1.464e-03,-0.64,-0.54
1.466e-03,-0.66,-0.72
1.468e-03,-0.6,-0.56
1.470e-03,-0.66,-0.78
1.472e-03,-0.72,-0.6
1.474e-03,-0.62,-0.7
1.476e-03,-0.58,-0.46
1.477e-03,-0.5,-0.64
1.479e-03,-0.54,-0.46
1.481e-03,-0.54,-0.66
1.483e-03,-0.58,-0.5
1.485e-03,-0.58,-0.7
1.487e-03,-0.66,-0.56
1.489e-03,-0.58,-0.7
1.491e-03,-0.62,-0.48
1.493e-03,-0.5,-0.6
1.495e-03,-0.48,-0.42
1.497e-03,-0.56,-0.68
1.499e-03,-0.58,-0.52
1.500e-03,-0.66,-0.84
1.502e-03,-0.7,-0.62
1.504e-03,-0.8,-0.84
1.506e-03,-0.7,-0.68
1.508e-03,-0.78,-0.78
1.510e-03,-0.62,-0.58
1.512e-03,-0.64,-0.68
1.514e-03,-0.6,-0.5
1.516e-03,-0.56,-0.66
1.518e-03,-0.6,-0.5
1.520e-03,-0.56,-0.68
1.522e-03,-0.62,-0.52
1.524e-03,-0.62,-0.68
1.525e-03,-0.64,-0.48
1.527e-03,-0.5,-0.74
1.529e-03,-0.68,-0.5
1.531e-03,-0.62,-0.7
1.533e-03,-0.6,-0.5
1.535e-03,-0.66,-0.76
1.537e-03,-0.68,-0.54
1.539e-03,-0.58,-0.66
1.541e-03,-0.58,-0.5
1.543e-03,-0.62,-0.74
1.545e-03,-0.7,-0.58
1.547e-03,-0.68,-0.76
1.548e-03,-0.68,-0.6
1.550e-03,-0.66,-0.72
1.552e-03,-0.64,-0.58
1.554e-03,-0.66,-0.74
1.556e-03,-0.64,-0.56
1.558e-03,-0.7,-0.72
1.560e-03,-0.6,-0.58
1.562e-03,-0.68,-0.7
1.564e-03,-0.62,-0.56
1.566e-03,-0.66,-0.7
1.568e-03,-0.6,-0.54
1.570e-03,-0.62,-0.78
1.572e-03,-0.68,-0.58
1.573e-03,-0.72,-0.84
1.575e-03,-0.76,-0.66
1.577e-03,-0.72,-0.84
1.579e-03,-0.82,-0.62
1.581e-03,-0.62,-0.8
1.583e-03,-0.78,-0.6
1.585e-03,-0.68,-0.78
1.587e-03,-0.68,-0.58
1.589e-03,-0.6,-0.74
1.591e-03,-0.66,-0.56
1.593e-03,-0.64,-0.76
1.595e-03,-0.68,-0.6
1.596e-03,-0.68,-0.76
1.598e-03,-0.66,-0.62
1.600e-03,-0.76,-0.78
1.602e-03,-0.66,-0.62
1.604e-03,-0.7,-0.72
1.606e-03,-0.6,-0.58
1.608e-03,-0.68,-0.78
1.610e-03,-0.64,-0.62
1.612e-03,-0.74,-0.78
1.614e-03,-0.7,-0.66
1.616e-03,-0.72,-0.86
1.618e-03,-0.78,-0.7
1.620e-03,-0.76,-0.82
1.621e-03,-0.76,-0.68
1.623e-03,-0.72,-0.82
1.625e-03,-0.78,-0.7
1.627e-03,-0.7,-0.78
1.629e-03,-0.7,-0.62
1.631e-03,-0.68,-0.76
1.633e-03,-0.68,-0.58
1.635e-03,-0.62,-0.76
1.637e-03,-0.7,-0.58
1.639e-03,-0.68,-0.74
1.641e-03,-0.7,-0.6
1.643e-03,-0.68,-0.76
1.645e-03,-0.64,-0.5
1.646e-03,-0.56,-0.68
1.648e-03,-0.56,-0.46
1.650e-03,-0.56,-0.7
1.652e-03,-0.56,-0.5
1.654e-03,-0.66,-0.68
1.656e-03,-0.54,-0.48
1.658e-03,-0.56,-0.68
1.660e-03,-0.58,-0.46
1.662e-03,-0.62,-0.64
1.664e-03,-0.48,-0.44
1.666e-03,-0.56,-0.76
1.668e-03,-0.68,-0.5
1.669e-03,-0.64,-0.76
1.671e-03,-0.68,-0.6
1.673e-03,-0.7,-0.78
1.675e-03,-0.74,-0.64
1.677e-03,-0.64,-0.74
1.679e-03,-0.72,-0.6
1.681e-03,-0.6,-0.74
1.683e-03,-0.64,-0.54
1.685e-03,-0.62,-0.78
1.687e-03,-0.74,-0.58
1.689e-03,-0.6,-0.66
1.691e-03,-0.6,-0.54
1.693e-03,-0.6,-0.64
1.694e-03,-0.54,-0.5
1.696e-03,-0.6,-0.64
1.698e-03,-0.48,-0.46
1.700e-03,-0.58,-0.58
1.702e-03,-0.46,-0.42
1.704e-03,-0.52,-0.58
1.706e-03,-0.48,-0.4
1.708e-03,-0.48,-0.66
1.710e-03,-0.5,-0.38
1.712e-03,-0.64,-0.68
1.714e-03,-0.56,-0.48
1.716e-03,-0.56,-0.74
1.717e-03,-0.62,-0.48
1.719e-03,-0.66,-0.76
1.721e-03,-0.66,-0.6
1.723e-03,-0.64,-0.7
1.725e-03,-0.58,-0.48
1.727e-03,-0.58,-0.8
1.729e-03,-0.7,-0.56
1.731e-03,-0.68,-0.8
1.733e-03,-0.74,-0.64
1.735e-03,-0.68,-0.82
1.737e-03,-0.76,-0.64
1.739e-03,-0.7,-0.76
1.741e-03,-0.68,-0.6
1.742e-03,-0.7,-0.84
1.744e-03,-0.74,-0.66
1.746e-03,-0.76,-0.8
1.748e-03,-0.66,-0.52
1.750e-03,-0.6,-0.64
1.752e-03,-0.48,-0.46
1.754e-03,-0.62,-0.68
1.756e-03,-0.58,-0.54
1.758e-03,-0.64,-0.7
1.760e-03,-0.6,-0.56
1.762e-03,-0.66,-0.78
1.764e-03,-0.64,-0.6
1.765e-03,-0.74,-0.78
1.767e-03,-0.68,-0.6
1.769e-03,-0.64,-0.72
1.771e-03,-0.66,-0.58
1.773e-03,-0.64,-0.76
1.775e-03,-0.74,-0.62
1.777e-03,-0.68,-0.82
1.779e-03,-0.78,-0.66
1.781e-03,-0.74,-0.82
1.783e-03,-0.78,-0.68
1.785e-03,-0.7,-0.86
1.787e-03,-0.8,-0.68
1.789e-03,-0.76,-0.82
1.790e-03,-0.66,-0.58
1.792e-03,-0.68,-0.74
1.794e-03,-0.64,-0.6
1.796e-03,-0.72,-0.74
1.798e-03,-0.58,-0.52
1.800e-03,-0.64,-0.82
1.802e-03,-0.66,-0.56
1.804e-03,-0.82,-0.84
1.806e-03,-0.7,-0.64
1.808e-03,-0.76,-0.78
1.810e-03,-0.64,-0.6
1.812e-03,-0.72,-0.74
1.813e-03,-0.6,-0.56
1.815e-03,-0.68,-0.76
1.817e-03,-0.7,-0.62
1.819e-03,-0.68,-0.76
1.821e-03,-0.7,-0.62
1.823e-03,-0.62,-0.68
1.825e-03,-0.6,-0.5
1.827e-03,-0.58,-0.74
1.829e-03,-0.68,-0.56
1.831e-03,-0.66,-0.78
1.833e-03,-0.78,-0.6
1.835e-03,-0.62,-0.76
1.837e-03,-0.72,-0.6
1.838e-03,-0.68,-0.74
1.840e-03,-0.68,-0.6
1.842e-03,-0.66,-0.76
1.844e-03,-0.62,-0.58
1.846e-03,-0.72,-0.78
1.848e-03,-0.62,-0.54
1.850e-03,-0.64,-0.74
1.852e-03,-0.64,-0.58
1.854e-03,-0.7,-0.74
1.856e-03,-0.6,-0.58
1.858e-03,-0.68,-0.76
1.860e-03,-0.6,-0.52
1.861e-03,-0.58,-0.76
1.863e-03,-0.66,-0.56
1.865e-03,-0.7,-0.76
1.867e-03,-0.68,-0.5
1.869e-03,-0.56,-0.72
1.871e-03,-0.66,-0.54
1.873e-03,-0.62,-0.74
1.875e-03,-0.7,-0.58
1.877e-03,-0.6,-0.7
1.879e-03,-0.6,-0.54
1.881e-03,-0.62,-0.72
1.883e-03,-0.6,-0.54
1.885e-03,-0.6,-0.78
1.886e-03,-0.68,-0.56
1.888e-03,-0.7,-0.76
1.890e-03,-0.66,-0.58
1.892e-03,-0.7,-0.78
1.894e-03,-0.68,-0.6
1.896e-03,-0.68,-0.7
1.898e-03,-0.58,-0.54
1.900e-03,-0.6,-0.64
1.902e-03,-0.48,-0.46
1.904e-03,-0.58,-0.62
1.906e-03,-0.54,-0.48
1.908e-03,-0.62,-0.82
1.909e-03,-0.64,-0.52
1.911e-03,-0.78,-0.82
1.913e-03,-0.68,-0.6
1.915e-03,-0.66,-0.76
1.917e-03,-0.66,-0.6
1.919e-03,-0.7,-0.74
1.921e-03,-0.7,-0.58
1.923e-03,-0.6,-0.72
1.925e-03,-0.7,-0.52
1.927e-03,-0.54,-0.7
1.929e-03,-0.64,-0.52
1.931e-03,-0.64,-0.74
1.933e-03,-0.66,-0.56
1.934e-03,-0.68,-0.78
1.936e-03,-0.66,-0.6
1.938e-03,-0.68,-0.74
1.940e-03,-0.66,-0.6
1.942e-03,-0.68,-0.82
1.944e-03,-0.7,-0.62
1.946e-03,-0.76,-0.8
1.948e-03,-0.66,-0.64
1.950e-03,-0.74,-0.76
1.952e-03,-0.64,-0.62
1.954e-03,-0.7,-0.74
1.956e-03,-0.56,-0.52
1.957e-03,-0.58,-0.68
1.959e-03,-0.6,-0.5
1.961e-03,-0.62,-0.72
1.963e-03,-0.66,-0.56
1.965e-03,-0.6,-0.68
1.967e-03,-0.62,-0.5
1.969e-03,-0.52,-0.68
1.971e-03,-0.64,-0.5
1.973e-03,-0.56,-0.68
1.975e-03,-0.64,-0.48
1.977e-03,-0.54,-0.68
1.979e-03,-0.62,-0.48
1.981e-03,-0.5,-0.6
1.982e-03,-0.56,-0.46
1.984e-03,-0.54,-0.6
1.986e-03,-0.54,-0.46
1.988e-03,-0.56,-0.68
1.990e-03,-0.6,-0.5
1.992e-03,-0.62,-0.72
1.994e-03,-0.56,-0.5
1.996e-03,-0.7,-0.84
1.998e-03,-0.72,-0.62
2.000e-03,-0.82,-0.88
2.002e-03,-0.78,-0.72
2.004e-03,-0.82,-0.84
2.005e-03,-0.76,-0.68
2.007e-03,-0.76,-0.76
2.009e-03,-0.62,-0.54
2.011e-03,-0.58,-0.64
2.013e-03,-0.54,-0.48
2.015e-03,-0.56,-0.68
2.017e-03,-0.58,-0.5
2.019e-03,-0.62,-0.68
2.021e-03,-0.6,-0.54
2.023e-03,-0.6,-0.74
2.025e-03,-0.68,-0.6
2.027e-03,-0.66,-0.74
2.029e-03,-0.68,-0.6
2.030e-03,-0.6,-0.72
2.032e-03,-0.66,-0.54
2.034e-03,-0.56,-0.64
2.036e-03,-0.56,-0.44
2.038e-03,-0.52,-0.58
2.040e-03,-0.48,-0.42
2.042e-03,-0.56,-0.76
2.044e-03,-0.64,-0.52
2.046e-03,-0.72,-0.82
2.048e-03,-0.74,-0.64
2.050e-03,-0.78,-0.82
2.052e-03,-0.68,-0.6
2.053e-03,-0.68,-0.72
2.055e-03,-0.54,-0.52
2.057e-03,-0.64,-0.74
2.059e-03,-0.68,-0.6
2.061e-03,-0.68,-0.76
2.063e-03,-0.7,-0.62
2.065e-03,-0.66,-0.8
2.067e-03,-0.76,-0.6
2.069e-03,-0.72,-0.82
2.071e-03,-0.78,-0.7
2.073e-03,-0.74,-0.82
2.075e-03,-0.76,-0.68
2.077e-03,-0.72,-0.82
2.078e-03,-0.78,-0.66
2.080e-03,-0.66,-0.72
2.082e-03,-0.66,-0.56
2.084e-03,-0.64,-0.74
2.086e-03,-0.66,-0.58
2.088e-03,-0.66,-0.8
2.090e-03,-0.72,-0.6
2.092e-03,-0.72,-0.76
2.094e-03,-0.66,-0.58
2.096e-03,-0.66,-0.74
2.098e-03,-0.62,-0.56
2.100e-03,-0.72,-0.74
2.101e-03,-0.6,-0.58
2.103e-03,-0.66,-0.7
2.105e-03,-0.6,-0.54
2.107e-03,-0.66,-0.78
2.109e-03,-0.6,-0.56
2.111e-03,-0.72,-0.78
2.113e-03,-0.62,-0.54
2.115e-03,-0.6,-0.76
2.117e-03,-0.7,-0.56
2.119e-03,-0.7,-0.78
2.121e-03,-0.74,-0.6
2.123e-03,-0.62,-0.76
2.125e-03,-0.7,-0.6
2.126e-03,-0.62,-0.72
2.128e-03,-0.64,-0.58
2.130e-03,-0.64,-0.82
2.132e-03,-0.7,-0.62
2.134e-03,-0.76,-0.82
2.136e-03,-0.66,-0.58
2.138e-03,-0.62,-0.68
2.140e-03,-0.6,-0.56
2.142e-03,-0.66,-0.7
2.144e-03,-0.56,-0.5
2.146e-03,-0.66,-0.8
2.148e-03,-0.66,-0.6
2.149e-03,-0.78,-0.82
2.151e-03,-0.7,-0.64
2.153e-03,-0.72,-0.8
2.155e-03,-0.7,-0.6
2.157e-03,-0.66,-0.76
2.159e-03,-0.66,-0.6
2.161e-03,-0.7,-0.78
2.163e-03,-0.66,-0.56
2.165e-03,-0.58,-0.68
2.167e-03,-0.58,-0.5
2.169e-03,-0.62,-0.7
2.171e-03,-0.62,-0.54
2.173e-03,-0.58,-0.76
2.174e-03,-0.74,-0.56
2.176e-03,-0.64,-0.7
2.178e-03,-0.64,-0.56
2.180e-03,-0.62,-0.82
2.182e-03,-0.78,-0.6
2.184e-03,-0.7,-0.82
2.186e-03,-0.7,-0.64
2.188e-03,-0.8,-0.82
2.190e-03,-0.74,-0.64
2.192e-03,-0.7,-0.78
2.194e-03,-0.68,-0.66
2.196e-03,-0.74,-0.76
2.197e-03,-0.62,-0.6
2.199e-03,-0.68,-0.72
2.201e-03,-0.56,-0.54
2.203e-03,-0.64,-0.76
2.205e-03,-0.68,-0.54
2.207e-03,-0.56,-0.66
2.209e-03,-0.54,-0.46
2.211e-03,-0.58,-0.74
2.213e-03,-0.64,-0.52
2.215e-03,-0.64,-0.78
2.217e-03,-0.68,-0.6
2.219e-03,-0.68,-0.78
2.221e-03,-0.7,-0.58
2.222e-03,-0.6,-0.76
2.224e-03,-0.7,-0.58
2.226e-03,-0.68,-0.8
2.228e-03,-0.74,-0.66
2.230e-03,-0.68,-0.76
2.232e-03,-0.68,-0.6
2.234e-03,-0.7,-0.78
2.236e-03,-0.7,-0.6
2.238e-03,-0.68,-0.74
2.240e-03,-0.62,-0.54
2.242e-03,-0.62,-0.78
2.244e-03,-0.64,-0.52
2.245e-03,-0.74,-0.78
2.247e-03,-0.64,-0.62
2.249e-03,-0.74,-0.82
2.251e-03,-0.74,-0.66
2.253e-03,-0.8,-0.8
2.255e-03,-0.7,-0.52
2.257e-03,-0.6,-0.86
2.259e-03,-0.66,-0.52
2.261e-03,-0.78,-0.88
2.263e-03,-0.76,-0.68
2.265e-03,-0.82,-0.94
2.267e-03,-0.88,-0.68
2.269e-03,-0.68,-0.78
2.270e-03,-0.76,-0.64
2.272e-03,-0.64,-0.74
2.274e-03,-0.7,-0.58
2.276e-03,-0.62,-0.84
2.278e-03,-0.8,-0.6
2.280e-03,-0.78,-0.86
2.282e-03,-0.78,-0.72
2.284e-03,-0.8,-0.92
2.286e-03,-0.86,-0.72
2.288e-03,-0.76,-0.86
2.290e-03,-0.8,-0.68
2.292e-03,-0.72,-0.82
2.294e-03,-0.72,-0.66
2.295e-03,-0.78,-0.8
2.297e-03,-0.66,-0.64
2.299e-03,-0.74,-0.84
2.301e-03,-0.7,-0.64
2.303e-03,-0.68,-0.76
2.305e-03,-0.68,-0.64
2.307e-03,-0.72,-0.78
2.309e-03,-0.68,-0.6
2.311e-03,-0.64,-0.7
2.313e-03,-0.6,-0.5
2.315e-03,-0.5,-0.68
2.317e-03,-0.62,-0.5
2.318e-03,-0.6,-0.8
2.320e-03,-0.7,-0.58
2.322e-03,-0.7,-0.8
2.324e-03,-0.74,-0.64
2.326e-03,-0.68,-0.86
2.328e-03,-0.76,-0.66
2.330e-03,-0.8,-0.88
2.332e-03,-0.78,-0.72
2.334e-03,-0.8,-0.88
2.336e-03,-0.78,-0.68
2.338e-03,-0.76,-0.82
2.340e-03,-0.74,-0.64
2.342e-03,-0.72,-0.74
2.343e-03,-0.6,-0.58
2.345e-03,-0.74,-0.8
2.347e-03,-0.66,-0.62
2.349e-03,-0.72,-0.78
2.351e-03,-0.7,-0.6
2.353e-03,-0.74,-0.84
2.355e-03,-0.76,-0.64
2.357e-03,-0.72,-0.74
2.359e-03,-0.62,-0.52
2.361e-03,-0.62,-0.82
2.363e-03,-0.74,-0.58
2.365e-03,-0.74,-0.88
2.366e-03,-0.78,-0.68
2.368e-03,-0.8,-0.88
2.370e-03,-0.74,-0.64
2.372e-03,-0.68,-0.78
2.374e-03,-0.76,-0.66
2.376e-03,-0.7,-0.78
2.378e-03,-0.74,-0.66
2.380e-03,-0.7,-0.8
2.382e-03,-0.72,-0.6
2.384e-03,-0.68,-0.72
2.386e-03,-0.64,-0.58
2.388e-03,-0.64,-0.68
2.390e-03,-0.52,-0.38
2.391e-03,-0.44,-0.54
2.393e-03,-0.44,-0.36
2.395e-03,-0.52,-0.68
2.397e-03,-0.56,-0.46
2.399e-03,-0.6,-0.7
2.401e-03,-0.62,-0.54
2.403e-03,-0.64,-0.7
2.405e-03,-0.58,-0.54
2.407e-03,-0.64,-0.82
2.409e-03,-0.68,-0.6
2.411e-03,-0.72,-0.86
2.413e-03,-0.84,-0.68
2.414e-03,-0.72,-0.82
2.416e-03,-0.76,-0.66
2.418e-03,-0.66,-0.84
2.420e-03,-0.76,-0.64
2.422e-03,-0.74,-0.82
2.424e-03,-0.76,-0.62
2.426e-03,-0.64,-0.72
2.428e-03,-0.66,-0.58
2.430e-03,-0.64,-0.76
2.432e-03,-0.62,-0.54
2.434e-03,-0.7,-0.8
2.436e-03,-0.72,-0.64
2.438e-03,-0.76,-0.8
2.439e-03,-0.64,-0.6
2.441e-03,-0.72,-0.76
2.443e-03,-0.64,-0.58
2.445e-03,-0.68,-0.9
2.447e-03,-0.8,-0.62
2.449e-03,-0.86,-0.9
2.451e-03,-0.76,-0.74
2.453e-03,-0.82,-0.9
2.455e-03,-0.82,-0.72
2.457e-03,-0.84,-0.88
2.459e-03,-0.76,-0.68
2.461e-03,-0.7,-0.78
2.462e-03,-0.74,-0.64
2.464e-03,-0.68,-0.8
2.466e-03,-0.74,-0.64
2.468e-03,-0.74,-0.82
2.470e-03,-0.78,-0.64
2.472e-03,-0.66,-0.88
2.474e-03,-0.78,-0.64
2.476e-03,-0.8,-0.9
2.478e-03,-0.82,-0.74
2.480e-03,-0.78,-0.84
2.482e-03,-0.76,-0.68
2.484e-03,-0.76,-0.8
2.486e-03,-0.66,-0.62
2.487e-03,-0.74,-0.8
2.489e-03,-0.72,-0.64
2.491e-03,-0.74,-0.78
2.493e-03,-0.64,-0.58
2.495e-03,-0.68,-0.78
2.497e-03,-0.66,-0.6
2.499e-03,-0.72,-0.78
2.501e-03,-0.68,-0.64
2.503e-03,-0.7,-0.76
2.505e-03,-0.62,-0.58
2.507e-03,-0.68,-0.76
2.509e-03,-0.66,-0.6
2.510e-03,-0.68,-0.78
2.512e-03,-0.74,-0.64
2.514e-03,-0.66,-0.8
2.516e-03,-0.72,-0.64
2.518e-03,-0.7,-0.82
2.520e-03,-0.8,-0.68
2.522e-03,-0.72,-0.8
2.524e-03,-0.76,-0.68
2.526e-03,-0.74,-0.8
2.528e-03,-0.76,-0.68
2.530e-03,-0.74,-0.78
2.532e-03,-0.66,-0.62
2.534e-03,-0.7,-0.76
2.535e-03,-0.7,-0.62
2.537e-03,-0.68,-0.74
2.539e-03,-0.6,-0.6
2.541e-03,-0.66,-0.84
2.543e-03,-0.66,-0.58
2.545e-03,-0.8,-0.84
2.547e-03,-0.68,-0.64
2.549e-03,-0.72,-0.82
2.551e-03,-0.76,-0.66
2.553e-03,-0.72,-0.82
2.555e-03,-0.78,-0.68
2.557e-03,-0.76,-0.84
2.558e-03,-0.8,-0.68
2.560e-03,-0.74,-0.82
2.562e-03,-0.8,-0.68
2.564e-03,-0.7,-0.76
2.566e-03,-0.72,-0.64
2.568e-03,-0.68,-0.76
2.570e-03,-0.66,-0.54
2.572e-03,-0.56,-0.74
2.574e-03,-0.66,-0.54
2.576e-03,-0.66,-0.86
2.578e-03,-0.76,-0.62
2.580e-03,-0.8,-0.86
2.582e-03,-0.7,-0.68
2.583e-03,-0.76,-0.78
2.585e-03,-0.68,-0.62
2.587e-03,-0.7,-0.78
2.589e-03,-0.66,-0.58
2.591e-03,-0.66,-0.7
2.593e-03,-0.58,-0.54
2.595e-03,-0.66,-0.76
2.597e-03,-0.62,-0.58
2.599e-03,-0.74,-0.84
2.601e-03,-0.78,-0.68
2.603e-03,-0.74,-0.8
2.605e-03,-0.72,-0.66
2.606e-03,-0.72,-0.8
2.608e-03,-0.7,-0.62
2.610e-03,-0.7,-0.84
2.612e-03,-0.78,-0.68
2.614e-03,-0.74,-0.82
2.616e-03,-0.66,-0.58
2.618e-03,-0.62,-0.7
2.620e-03,-0.66,-0.56
2.622e-03,-0.64,-0.74
2.624e-03,-0.72,-0.6
2.626e-03,-0.66,-0.74
2.628e-03,-0.66,-0.6
2.630e-03,-0.64,-0.7
2.631e-03,-0.6,-0.56
2.633e-03,-0.7,-0.86
2.635e-03,-0.76,-0.64
2.637e-03,-0.84,-0.86
2.639e-03,-0.74,-0.68
2.641e-03,-0.76,-0.78
2.643e-03,-0.62,-0.6
2.645e-03,-0.72,-0.84
2.647e-03,-0.66,-0.64
2.649e-03,-0.78,-0.84
2.651e-03,-0.76,-0.66
2.653e-03,-0.7,-0.78
2.654e-03,-0.72,-0.64
2.656e-03,-0.68,-0.82
2.658e-03,-0.76,-0.66
2.660e-03,-0.74,-0.9
2.662e-03,-0.86,-0.7
2.664e-03,-0.72,-0.82
2.666e-03,-0.7,-0.58
2.668e-03,-0.62,-0.76
2.670e-03,-0.7,-0.62
2.672e-03,-0.68,-0.88
2.674e-03,-0.78,-0.64
2.676e-03,-0.82,-0.9
2.678e-03,-0.78,-0.74
2.679e-03,-0.84,-0.88
2.681e-03,-0.72,-0.62
2.683e-03,-0.7,-0.78
2.685e-03,-0.64,-0.58
2.687e-03,-0.72,-0.82
2.689e-03,-0.7,-0.64
2.691e-03,-0.78,-0.8
2.693e-03,-0.66,-0.54
2.695e-03,-0.64,-0.8
2.697e-03,-0.72,-0.56
2.699e-03,-0.76,-0.78
2.701e-03,-0.72,-0.64
2.702e-03,-0.68,-0.8
2.704e-03,-0.76,-0.64
2.706e-03,-0.74,-0.82
2.708e-03,-0.78,-0.7
2.710e-03,-0.72,-0.84
2.712e-03,-0.82,-0.7
2.714e-03,-0.7,-0.86
2.716e-03,-0.84,-0.68
2.718e-03,-0.74,-0.84
2.720e-03,-0.78,-0.68
2.722e-03,-0.76,-0.82
2.724e-03,-0.7,-0.58
2.726e-03,-0.62,-0.72
2.727e-03,-0.64,-0.58
2.729e-03,-0.7,-0.78
2.731e-03,-0.72,-0.64
2.733e-03,-0.74,-0.88
2.735e-03,-0.78,-0.7
2.737e-03,-0.82,-0.84
2.739e-03,-0.66,-0.6
2.741e-03,-0.7,-0.78
2.743e-03,-0.58,-0.56
2.745e-03,-0.72,-0.8
2.747e-03,-0.7,-0.66
2.749e-03,-0.74,-0.84
2.750e-03,-0.74,-0.68
2.752e-03,-0.78,-0.84
2.754e-03,-0.72,-0.64
2.756e-03,-0.68,-0.78
2.758e-03,-0.74,-0.64
2.760e-03,-0.68,-0.8
2.762e-03,-0.74,-0.66
2.764e-03,-0.68,-0.76
2.766e-03,-0.72,-0.62
2.768e-03,-0.68,-0.76
2.770e-03,-0.74,-0.62
2.772e-03,-0.66,-0.72
2.774e-03,-0.62,-0.52
2.775e-03,-0.62,-0.76
2.777e-03,-0.6,-0.56
2.779e-03,-0.74,-0.84
2.781e-03,-0.72,-0.66
2.783e-03,-0.82,-0.84
2.785e-03,-0.7,-0.68
2.787e-03,-0.8,-0.84
2.789e-03,-0.68,-0.62
2.791e-03,-0.7,-0.86
2.793e-03,-0.74,-0.64
2.795e-03,-0.84,-0.86
2.797e-03,-0.7,-0.66
2.798e-03,-0.74,-0.86
2.800e-03,-0.74,-0.64
2.802e-03,-0.84,-0.9
2.804e-03,-0.82,-0.72
2.806e-03,-0.76,-0.82
2.808e-03,-0.74,-0.66
2.810e-03,-0.72,-0.82
2.812e-03,-0.76,-0.68
2.814e-03,-0.72,-0.88
2.816e-03,-0.82,-0.7
2.818e-03,-0.8,-0.86
2.820e-03,-0.82,-0.72
2.822e-03,-0.74,-0.84
2.823e-03,-0.78,-0.62
2.825e-03,-0.68,-0.8
2.827e-03,-0.74,-0.64
2.829e-03,-0.74,-0.8
2.831e-03,-0.72,-0.68
2.833e-03,-0.8,-0.8
2.835e-03,-0.66,-0.64
2.837e-03,-0.76,-0.78
2.839e-03,-0.68,-0.6
2.841e-03,-0.64,-0.72
2.843e-03,-0.62,-0.58
2.845e-03,-0.64,-0.7
2.846e-03,-0.62,-0.56
2.848e-03,-0.58,-0.74
2.850e-03,-0.64,-0.54
2.852e-03,-0.68,-0.76
2.854e-03,-0.68,-0.56
2.856e-03,-0.58,-0.7
2.858e-03,-0.66,-0.56
2.860e-03,-0.58,-0.82
2.862e-03,-0.66,-0.56
2.864e-03,-0.72,-0.88
2.866e-03,-0.8,-0.66
2.868e-03,-0.82,-0.9
2.870e-03,-0.88,-0.74
2.871e-03,-0.76,-0.84
2.873e-03,-0.74,-0.68
2.875e-03,-0.8,-0.88
2.877e-03,-0.74,-0.68
2.879e-03,-0.78,-0.82
2.881e-03,-0.72,-0.68
2.883e-03,-0.8,-0.82
2.885e-03,-0.66,-0.64
2.887e-03,-0.8,-0.86
2.889e-03,-0.72,-0.68
2.891e-03,-0.82,-0.84
2.893e-03,-0.72,-0.62
2.895e-03,-0.72,-0.84
2.896e-03,-0.78,-0.66
2.898e-03,-0.78,-0.84
2.900e-03,-0.76,-0.7
2.902e-03,-0.7,-0.82
2.904e-03,-0.72,-0.62
2.906e-03,-0.74,-0.84
2.908e-03,-0.78,-0.66
2.910e-03,-0.72,-0.84
2.912e-03,-0.78,-0.68
2.914e-03,-0.7,-0.8
2.916e-03,-0.7,-0.62
2.918e-03,-0.72,-0.82
2.919e-03,-0.7,-0.66
2.921e-03,-0.72,-0.88
2.923e-03,-0.78,-0.7
2.925e-03,-0.78,-0.82
2.927e-03,-0.72,-0.68
2.929e-03,-0.78,-0.82
2.931e-03,-0.7,-0.68
2.933e-03,-0.76,-0.78
2.935e-03,-0.62,-0.58
2.937e-03,-0.7,-0.84
2.939e-03,-0.72,-0.62
2.941e-03,-0.8,-0.88
2.943e-03,-0.76,-0.68
2.944e-03,-0.76,-0.86
2.946e-03,-0.78,-0.7
2.948e-03,-0.8,-0.86
2.950e-03,-0.76,-0.7
2.952e-03,-0.78,-0.86
2.954e-03,-0.8,-0.66
2.956e-03,-0.68,-0.8
2.958e-03,-0.74,-0.66
2.960e-03,-0.68,-0.78
2.962e-03,-0.68,-0.58
2.964e-03,-0.74,-0.82
2.966e-03,-0.74,-0.66
2.967e-03,-0.76,-0.84
2.969e-03,-0.82,-0.66
2.971e-03,-0.72,-0.84
2.973e-03,-0.78,-0.68
2.975e-03,-0.76,-0.8
2.977e-03,-0.7,-0.6
2.979e-03,-0.68,-0.74
2.981e-03,-0.64,-0.58
2.983e-03,-0.66,-0.74
2.985e-03,-0.6,-0.58
2.987e-03,-0.72,-0.76
2.989e-03,-0.6,-0.58
2.991e-03,-0.7,-0.74
2.992e-03,-0.64,-0.6
2.994e-03,-0.66,-0.72
2.996e-03,-0.62,-0.58
2.998e-03,-0.66,-0.86
3.000e-03,-0.72,-0.6
3.002e-03,-0.76,-0.84
3.004e-03,-0.8,-0.7
3.006e-03,-0.74,-0.84
3.008e-03,-0.76,-0.66
3.010e-03,-0.68,-0.82
3.012e-03,-0.74,-0.64
3.014e-03,-0.74,-0.84
3.015e-03,-0.78,-0.7
3.017e-03,-0.76,-0.84
3.019e-03,-0.72,-0.66
3.021e-03,-0.78,-0.84
3.023e-03,-0.72,-0.66
3.025e-03,-0.76,-0.8
3.027e-03,-0.64,-0.62
3.029e-03,-0.78,-0.86
3.031e-03,-0.72,-0.68
3.033e-03,-0.84,-0.88
3.035e-03,-0.74,-0.68
3.037e-03,-0.8,-0.9
3.039e-03,-0.74,-0.68
3.040e-03,-0.88,-0.9
3.042e-03,-0.76,-0.68
3.044e-03,-0.74,-0.78
3.046e-03,-0.66,-0.56
3.048e-03,-0.6,-0.7
3.050e-03,-0.64,-0.56
3.052e-03,-0.62,-0.74
3.054e-03,-0.66,-0.56
3.056e-03,-0.64,-0.8
3.058e-03,-0.76,-0.62
3.060e-03,-0.72,-0.88
3.062e-03,-0.84,-0.68
3.063e-03,-0.7,-0.8
3.065e-03,-0.78,-0.66
3.067e-03,-0.68,-0.76
3.069e-03,-0.68,-0.62
3.071e-03,-0.72,-0.76
3.073e-03,-0.64,-0.6
3.075e-03,-0.68,-0.74
3.077e-03,-0.62,-0.58
3.079e-03,-0.66,-0.84
3.081e-03,-0.72,-0.62
3.083e-03,-0.76,-0.84
3.085e-03,-0.72,-0.68
3.087e-03,-0.76,-0.84
3.088e-03,-0.74,-0.66
3.090e-03,-0.7,-0.76
3.092e-03,-0.62,-0.5
3.094e-03,-0.54,-0.76
3.096e-03,-0.58,-0.48
3.098e-03,-0.7,-0.76
3.100e-03,-0.66,-0.54
3.102e-03,-0.58,-0.8
3.104e-03,-0.74,-0.56
3.106e-03,-0.7,-0.82
3.108e-03,-0.7,-0.62
3.110e-03,-0.72,-0.84
3.111e-03,-0.72,-0.62
3.113e-03,-0.7,-0.94
3.115e-03,-0.82,-0.66
3.117e-03,-0.88,-0.96
3.119e-03,-0.9,-0.8
3.121e-03,-0.86,-0.9
3.123e-03,-0.76,-0.72
3.125e-03,-0.82,-0.86
3.127e-03,-0.76,-0.7
3.129e-03,-0.76,-0.84
3.131e-03,-0.7,-0.68
3.133e-03,-0.8,-0.92
3.135e-03,-0.84,-0.74
3.136e-03,-0.88,-0.9
3.138e-03,-0.78,-0.72
3.140e-03,-0.82,-0.84
3.142e-03,-0.68,-0.6
3.144e-03,-0.64,-0.74
3.146e-03,-0.64,-0.56
3.148e-03,-0.7,-0.82
3.150e-03,-0.72,-0.64
3.152e-03,-0.74,-0.8
3.154e-03,-0.72,-0.62
3.156e-03,-0.64,-0.74
3.158e-03,-0.7,-0.6
3.159e-03,-0.64,-0.78
3.161e-03,-0.74,-0.62
3.163e-03,-0.72,-0.88
3.165e-03,-0.84,-0.68
3.167e-03,-0.78,-0.84
3.169e-03,-0.76,-0.68
3.171e-03,-0.74,-0.78
3.173e-03,-0.68,-0.62
3.175e-03,-0.76,-0.78
3.177e-03,-0.58,-0.56
3.179e-03,-0.68,-0.78
3.181e-03,-0.66,-0.58
3.183e-03,-0.72,-0.74
3.184e-03,-0.6,-0.56
3.186e-03,-0.6,-0.66
3.188e-03,-0.56,-0.52
3.190e-03,-0.58,-0.7
3.192e-03,-0.64,-0.56
3.194e-03,-0.64,-0.72
3.196e-03,-0.62,-0.58
3.198e-03,-0.64,-0.82
3.200e-03,-0.72,-0.62
3.202e-03,-0.72,-0.82
3.204e-03,-0.74,-0.64
3.206e-03,-0.66,-0.74
3.207e-03,-0.68,-0.6
3.209e-03,-0.68,-0.76
3.211e-03,-0.68,-0.58
3.213e-03,-0.66,-0.76
3.215e-03,-0.72,-0.62
3.217e-03,-0.7,-0.76
3.219e-03,-0.64,-0.58
3.221e-03,-0.66,-0.8
3.223e-03,-0.66,-0.6
3.225e-03,-0.78,-0.86
3.227e-03,-0.74,-0.68
3.229e-03,-0.8,-0.82
3.231e-03,-0.7,-0.66
3.232e-03,-0.82,-0.92
3.234e-03,-0.8,-0.74
3.236e-03,-0.86,-0.88
3.238e-03,-0.72,-0.68
3.240e-03,-0.86,-0.9
3.242e-03,-0.8,-0.76
3.244e-03,-0.82,-0.88
3.246e-03,-0.74,-0.62
3.248e-03,-0.66,-0.78
3.250e-03,-0.68,-0.6
3.252e-03,-0.68,-0.82
3.254e-03,-0.78,-0.66
3.255e-03,-0.72,-0.88
3.257e-03,-0.86,-0.68
3.259e-03,-0.68,-0.8
3.261e-03,-0.72,-0.64
3.263e-03,-0.74,-0.86
3.265e-03,-0.78,-0.7
3.267e-03,-0.76,-0.86
3.269e-03,-0.76,-0.72
3.271e-03,-0.78,-0.86
3.273e-03,-0.74,-0.68
3.275e-03,-0.82,-0.84
3.277e-03,-0.7,-0.68
3.279e-03,-0.78,-0.8
3.280e-03,-0.7,-0.66
3.282e-03,-0.78,-0.82
3.284e-03,-0.74,-0.68
3.286e-03,-0.74,-0.82
3.288e-03,-0.74,-0.66
3.290e-03,-0.74,-0.8
3.292e-03,-0.76,-0.66
3.294e-03,-0.68,-0.76
3.296e-03,-0.64,-0.56
3.298e-03,-0.68,-0.8
3.300e-03,-0.78,-0.62
3.302e-03,-0.6,-0.7
3.303e-03,-0.6,-0.52
3.305e-03,-0.6,-0.68
3.307e-03,-0.62,-0.5
3.309e-03,-0.6,-0.9
3.311e-03,-0.8,-0.58
3.313e-03,-0.84,-0.9
3.315e-03,-0.82,-0.7
3.317e-03,-0.76,-0.86
3.319e-03,-0.76,-0.7
3.321e-03,-0.76,-0.8
3.323e-03,-0.68,-0.64
3.325e-03,-0.74,-0.8
3.327e-03,-0.66,-0.66
3.328e-03,-0.8,-0.84
3.330e-03,-0.7,-0.66
3.332e-03,-0.74,-0.78
3.334e-03,-0.62,-0.58
3.336e-03,-0.66,-0.8
3.338e-03,-0.68,-0.6
3.340e-03,-0.74,-0.88
3.342e-03,-0.78,-0.68
3.344e-03,-0.82,-0.88
3.346e-03,-0.74,-0.64
3.348e-03,-0.66,-0.8
3.350e-03,-0.76,-0.62
3.351e-03,-0.7,-0.86
3.353e-03,-0.82,-0.7
3.355e-03,-0.76,-0.86
3.357e-03,-0.76,-0.64
3.359e-03,-0.66,-0.76
3.361e-03,-0.66,-0.6
3.363e-03,-0.7,-0.82
3.365e-03,-0.7,-0.66
3.367e-03,-0.8,-0.9
3.369e-03,-0.82,-0.7
3.371e-03,-0.76,-0.8
3.373e-03,-0.64,-0.56
3.375e-03,-0.64,-0.72
3.376e-03,-0.62,-0.56
3.378e-03,-0.68,-0.74
3.380e-03,-0.62,-0.58
3.382e-03,-0.72,-0.78
3.384e-03,-0.64,-0.62
3.386e-03,-0.76,-0.82
3.388e-03,-0.68,-0.62
3.390e-03,-0.78,-0.9
3.392e-03,-0.82,-0.72
3.394e-03,-0.74,-0.82
3.396e-03,-0.76,-0.62
3.398e-03,-0.62,-0.74
3.399e-03,-0.68,-0.6
3.401e-03,-0.66,-0.78
3.403e-03,-0.76,-0.64
3.405e-03,-0.68,-0.76
3.407e-03,-0.72,-0.6
3.409e-03,-0.66,-0.72
3.411e-03,-0.68,-0.56
3.413e-03,-0.62,-0.78
3.415e-03,-0.72,-0.58
3.417e-03,-0.7,-0.76
3.419e-03,-0.66,-0.6
3.421e-03,-0.68,-0.78
3.423e-03,-0.66,-0.62
3.424e-03,-0.76,-0.82
3.426e-03,-0.74,-0.64
3.428e-03,-0.72,-0.78
3.430e-03,-0.6,-0.6
3.432e-03,-0.76,-0.88
3.434e-03,-0.72,-0.68
3.436e-03,-0.82,-0.88
3.438e-03,-0.78,-0.7
3.440e-03,-0.74,-0.82
3.442e-03,-0.72,-0.66
3.444e-03,-0.76,-0.86
3.446e-03,-0.8,-0.72
3.447e-03,-0.72,-0.82
3.449e-03,-0.8,-0.68
3.451e-03,-0.7,-0.94
3.453e-03,-0.84,-0.7
3.455e-03,-0.82,-0.92
3.457e-03,-0.8,-0.76
3.459e-03,-0.84,-0.92
3.461e-03,-0.78,-0.72
3.463e-03,-0.8,-0.88
3.465e-03,-0.76,-0.68
3.467e-03,-0.78,-0.82
3.469e-03,-0.68,-0.62
3.471e-03,-0.72,-0.76
3.472e-03,-0.64,-0.58
3.474e-03,-0.7,-0.82
3.476e-03,-0.68,-0.64
3.478e-03,-0.76,-0.82
3.480e-03,-0.68,-0.64
3.482e-03,-0.7,-0.74
3.484e-03,-0.6,-0.56
3.486e-03,-0.68,-0.72
3.488e-03,-0.64,-0.6
3.490e-03,-0.66,-0.72
3.492e-03,-0.62,-0.56
3.494e-03,-0.64,-0.72
3.495e-03,-0.62,-0.54
3.497e-03,-0.56,-0.76
3.499e-03,-0.64,-0.52
3.501e-03,-0.66,-0.88
3.503e-03,-0.8,-0.64
3.505e-03,-0.8,-0.84
3.507e-03,-0.76,-0.64
3.509e-03,-0.66,-0.86
3.511e-03,-0.78,-0.62
3.513e-03,-0.78,-0.86
3.515e-03,-0.76,-0.68
3.517e-03,-0.72,-0.76
3.519e-03,-0.62,-0.56
3.520e-03,-0.64,-0.72
3.522e-03,-0.54,-0.52
3.524e-03,-0.74,-0.8
3.526e-03,-0.64,-0.64
3.528e-03,-0.8,-0.88
3.530e-03,-0.78,-0.72
3.532e-03,-0.82,-0.88
3.534e-03,-0.78,-0.72
3.536e-03,-0.78,-0.84
3.538e-03,-0.66,-0.6
3.540e-03,-0.66,-0.72
3.542e-03,-0.66,-0.56
3.544e-03,-0.58,-0.8
3.545e-03,-0.68,-0.58
3.547e-03,-0.72,-0.84
3.549e-03,-0.74,-0.64
3.551e-03,-0.74,-0.82
3.553e-03,-0.78,-0.7
3.555e-03,-0.72,-0.82
3.557e-03,-0.72,-0.64
3.559e-03,-0.74,-0.86
3.561e-03,-0.82,-0.66
3.563e-03,-0.72,-0.84
3.565e-03,-0.7,-0.64
3.567e-03,-0.82,-0.84
3.568e-03,-0.76,-0.72
3.570e-03,-0.82,-0.82
3.572e-03,-0.68,-0.64
3.574e-03,-0.7,-0.8
3.576e-03,-0.72,-0.64
3.578e-03,-0.74,-0.84
3.580e-03,-0.72,-0.64
3.582e-03,-0.8,-0.84
3.584e-03,-0.72,-0.68
3.586e-03,-0.78,-0.84
3.588e-03,-0.74,-0.7
3.590e-03,-0.76,-0.82
3.592e-03,-0.72,-0.64
3.593e-03,-0.68,-0.76
3.595e-03,-0.7,-0.62
3.597e-03,-0.64,-0.72
3.599e-03,-0.7,-0.58
3.601e-03,-0.62,-0.8
3.603e-03,-0.76,-0.6
3.605e-03,-0.7,-0.88
3.607e-03,-0.74,-0.66
3.609e-03,-0.82,-0.9
3.611e-03,-0.84,-0.76
3.613e-03,-0.82,-0.96
3.615e-03,-0.86,-0.76
3.616e-03,-0.82,-0.86
3.618e-03,-0.66,-0.56
3.620e-03,-0.66,-0.7
3.622e-03,-0.6,-0.56
3.624e-03,-0.7,-0.8
3.626e-03,-0.68,-0.62
3.628e-03,-0.72,-0.82
3.630e-03,-0.74,-0.66
3.632e-03,-0.74,-0.78
3.634e-03,-0.64,-0.58
3.636e-03,-0.64,-0.72
3.638e-03,-0.66,-0.56
3.640e-03,-0.6,-0.78
3.641e-03,-0.74,-0.58
3.643e-03,-0.66,-0.84
3.645e-03,-0.78,-0.62
3.647e-03,-0.74,-0.82
3.649e-03,-0.7,-0.62
3.651e-03,-0.74,-0.82
3.653e-03,-0.8,-0.7
3.655e-03,-0.76,-0.86
3.657e-03,-0.8,-0.7
3.659e-03,-0.8,-0.86
3.661e-03,-0.76,-0.62
3.663e-03,-0.68,-0.74
3.664e-03,-0.6,-0.58
3.666e-03,-0.66,-0.72
3.668e-03,-0.62,-0.58
3.670e-03,-0.64,-0.7
3.672e-03,-0.56,-0.54
3.674e-03,-0.68,-0.76
3.676e-03,-0.62,-0.6
3.678e-03,-0.72,-0.86
3.680e-03,-0.72,-0.64
3.682e-03,-0.86,-0.9
3.684e-03,-0.82,-0.72
3.686e-03,-0.76,-0.82
3.688e-03,-0.7,-0.62
3.689e-03,-0.7,-0.82
3.691e-03,-0.76,-0.64
3.693e-03,-0.66,-0.74
3.695e-03,-0.7,-0.6
3.697e-03,-0.64,-0.8
3.699e-03,-0.76,-0.62
3.701e-03,-0.72,-0.8
3.703e-03,-0.74,-0.66
3.705e-03,-0.7,-0.82
3.707e-03,-0.72,-0.66
3.709e-03,-0.74,-0.9
3.711e-03,-0.8,-0.72
3.712e-03,-0.86,-0.92
3.714e-03,-0.82,-0.74
3.716e-03,-0.82,-0.9
3.718e-03,-0.78,-0.72
3.720e-03,-0.78,-0.84
3.722e-03,-0.72,-0.68
3.724e-03,-0.82,-0.92
3.726e-03,-0.78,-0.76
3.728e-03,-0.84,-0.9
3.730e-03,-0.78,-0.74
3.732e-03,-0.86,-0.9
3.734e-03,-0.82,-0.74
3.736e-03,-0.76,-0.82
3.737e-03,-0.76,-0.7
3.739e-03,-0.7,-0.76
3.741e-03,-0.68,-0.52
3.743e-03,-0.58,-0.76
3.745e-03,-0.7,-0.56
3.747e-03,-0.68,-0.82
3.749e-03,-0.72,-0.62
3.751e-03,-0.76,-0.88
3.753e-03,-0.86,-0.72
3.755e-03,-0.82,-0.9
3.757e-03,-0.84,-0.72
3.759e-03,-0.76,-0.82
3.760e-03,-0.76,-0.7
3.762e-03,-0.76,-0.82
3.764e-03,-0.7,-0.64
3.766e-03,-0.74,-0.84
3.768e-03,-0.74,-0.66
3.770e-03,-0.74,-0.76
3.772e-03,-0.66,-0.62
3.774e-03,-0.7,-0.82
3.776e-03,-0.62,-0.6
3.778e-03,-0.8,-0.92
3.780e-03,-0.82,-0.72
3.782e-03,-0.8,-0.86
3.784e-03,-0.76,-0.68
3.785e-03,-0.74,-0.8
3.787e-03,-0.68,-0.56
3.789e-03,-0.6,-0.7
3.791e-03,-0.62,-0.5
3.793e-03,-0.5,-0.68
3.795e-03,-0.62,-0.48
3.797e-03,-0.58,-0.68
3.799e-03,-0.62,-0.52
3.801e-03,-0.58,-0.7
3.803e-03,-0.64,-0.52
3.805e-03,-0.56,-0.7
3.807e-03,-0.6,-0.52
3.808e-03,-0.66,-0.74
3.810e-03,-0.64,-0.6
3.812e-03,-0.7,-0.74
3.814e-03,-0.66,-0.52
3.816e-03,-0.62,-0.74
3.818e-03,-0.56,-0.54
3.820e-03,-0.72,-0.78
3.822e-03,-0.66,-0.64
3.824e-03,-0.78,-0.82
3.826e-03,-0.74,-0.66
3.828e-03,-0.74,-0.88
3.830e-03,-0.78,-0.64
3.832e-03,-0.84,-0.9
3.833e-03,-0.78,-0.64
3.835e-03,-0.66,-0.72
3.837e-03,-0.66,-0.56
3.839e-03,-0.64,-0.72
3.841e-03,-0.68,-0.58
3.843e-03,-0.64,-0.78
3.845e-03,-0.76,-0.62
3.847e-03,-0.6,-0.74
3.849e-03,-0.6,-0.5
3.851e-03,-0.66,-0.82
3.853e-03,-0.78,-0.64
3.855e-03,-0.76,-0.84
3.856e-03,-0.76,-0.62
3.858e-03,-0.66,-0.76
3.860e-03,-0.68,-0.6
3.862e-03,-0.7,-0.8
3.864e-03,-0.7,-0.6
3.866e-03,-0.7,-0.86
3.868e-03,-0.72,-0.64
3.870e-03,-0.82,-0.88
3.872e-03,-0.78,-0.72
3.874e-03,-0.84,-0.9
3.876e-03,-0.76,-0.74
3.878e-03,-0.86,-1
3.880e-03,-0.92,-0.8
3.881e-03,-0.9,-0.94
3.883e-03,-0.84,-0.72
3.885e-03,-0.74,-0.82
3.887e-03,-0.76,-0.66
3.889e-03,-0.7,-0.78
3.891e-03,-0.74,-0.6
3.893e-03,-0.62,-0.78
3.895e-03,-0.72,-0.6
3.897e-03,-0.72,-0.94
3.899e-03,-0.88,-0.7
3.901e-03,-0.86,-0.96
3.903e-03,-0.9,-0.76
3.904e-03,-0.8,-0.84
3.906e-03,-0.78,-0.68
3.908e-03,-0.8,-0.9
3.910e-03,-0.84,-0.74
3.912e-03,-0.82,-0.94
3.914e-03,-0.84,-0.76
3.916e-03,-0.94,-0.98
3.918e-03,-0.92,-0.8
3.920e-03,-0.86,-0.9
3.922e-03,-0.78,-0.72
3.924e-03,-0.82,-0.88
3.926e-03,-0.76,-0.7
3.928e-03,-0.84,-0.84
3.929e-03,-0.66,-0.62
3.931e-03,-0.76,-0.82
3.933e-03,-0.76,-0.68
3.935e-03,-0.74,-0.82
3.937e-03,-0.68,-0.62
3.939e-03,-0.74,-0.86
3.941e-03,-0.82,-0.7
3.943e-03,-0.74,-0.88
3.945e-03,-0.82,-0.7
3.947e-03,-0.8,-0.88
3.949e-03,-0.82,-0.72
3.951e-03,-0.74,-0.82
3.952e-03,-0.8,-0.64
3.954e-03,-0.66,-0.84
3.956e-03,-0.72,-0.62
3.958e-03,-0.82,-0.88
3.960e-03,-0.74,-0.66
3.962e-03,-0.78,-0.9
3.964e-03,-0.8,-0.74
3.966e-03,-0.86,-0.88
3.968e-03,-0.74,-0.72
3.970e-03,-0.82,-0.82
3.972e-03,-0.64,-0.64
3.974e-03,-0.78,-0.86
3.976e-03,-0.76,-0.7
3.977e-03,-0.72,-0.88
3.979e-03,-0.76,-0.66
3.981e-03,-0.78,-0.92
3.983e-03,-0.82,-0.74
3.985e-03,-0.78,-0.9
3.987e-03,-0.86,-0.76
3.989e-03,-0.82,-0.88
3.991e-03,-0.82,-0.74
3.993e-03,-0.78,-0.84
3.995e-03,-0.82,-0.62
3.997e-03,-0.62,-0.7
3.999e-03,-0.66,-0.58
4.000e-03,-0.64,-0.72
4.002e-03,-0.64,-0.54
4.004e-03,-0.6,-0.7
4.006e-03,-0.58,-0.54
4.008e-03,-0.64,-0.76
4.010e-03,-0.64,-0.58
4.012e-03,-0.76,-0.88
4.014e-03,-0.68,-0.66
4.016e-03,-0.86,-0.9
4.018e-03,-0.72,-0.7
4.020e-03,-0.82,-0.84
4.022e-03,-0.72,-0.64
4.024e-03,-0.72,-0.76
4.025e-03,-0.68,-0.62
4.027e-03,-0.72,-0.84
4.029e-03,-0.64,-0.58
4.031e-03,-0.76,-0.82
4.033e-03,-0.76,-0.66
4.035e-03,-0.72,-0.78
4.037e-03,-0.68,-0.54
4.039e-03,-0.56,-0.76
4.041e-03,-0.68,-0.54
4.043e-03,-0.68,-0.82
4.045e-03,-0.8,-0.66
4.047e-03,-0.76,-0.84
4.048e-03,-0.78,-0.68
4.050e-03,-0.72,-0.8
4.052e-03,-0.72,-0.66
4.054e-03,-0.74,-0.78
4.056e-03,-0.72,-0.62
4.058e-03,-0.68,-0.76
4.060e-03,-0.62,-0.6
4.062e-03,-0.74,-0.82
4.064e-03,-0.68,-0.66
4.066e-03,-0.78,-0.8
4.068e-03,-0.6,-0.6
4.070e-03,-0.68,-0.82
4.072e-03,-0.6,-0.6
4.073e-03,-0.78,-0.82
4.075e-03,-0.74,-0.66
4.077e-03,-0.7,-0.76
4.079e-03,-0.68,-0.62
4.081e-03,-0.7,-0.76
4.083e-03,-0.68,-0.58
4.085e-03,-0.66,-0.8
4.087e-03,-0.72,-0.58
4.089e-03,-0.64,-0.76
4.091e-03,-0.7,-0.62
4.093e-03,-0.66,-0.82
4.095e-03,-0.8,-0.62
4.096e-03,-0.68,-0.74
4.098e-03,-0.7,-0.6
4.100e-03,-0.7,-0.8
4.102e-03,-0.74,-0.62
4.104e-03,-0.66,-0.76
4.106e-03,-0.66,-0.6
4.108e-03,-0.72,-0.82
4.110e-03,-0.72,-0.66
4.112e-03,-0.8,-0.82
4.114e-03,-0.68,-0.58
4.116e-03,-0.66,-0.7
4.118e-03,-0.52,-0.52
4.120e-03,-0.62,-0.7
4.121e-03,-0.56,-0.52
4.123e-03,-0.68,-0.9
4.125e-03,-0.74,-0.6
4.127e-03,-0.84,-0.9
4.129e-03,-0.74,-0.68
4.131e-03,-0.72,-0.82
4.133e-03,-0.72,-0.66
4.135e-03,-0.74,-0.82
4.137e-03,-0.76,-0.66
4.139e-03,-0.68,-0.78
4.141e-03,-0.74,-0.64
4.143e-03,-0.66,-0.94
4.145e-03,-0.8,-0.66
4.146e-03,-0.86,-0.94
4.148e-03,-0.88,-0.78
4.150e-03,-0.82,-0.9
4.152e-03,-0.8,-0.68
4.154e-03,-0.74,-0.78
4.156e-03,-0.72,-0.64
4.158e-03,-0.72,-0.8
4.160e-03,-0.66,-0.64
4.162e-03,-0.76,-0.78
4.164e-03,-0.64,-0.6
4.166e-03,-0.72,-0.78
4.168e-03,-0.66,-0.64
4.169e-03,-0.72,-0.8
4.171e-03,-0.72,-0.66
4.173e-03,-0.72,-0.76
4.175e-03,-0.64,-0.58
4.177e-03,-0.68,-0.72
4.179e-03,-0.64,-0.58
4.181e-03,-0.58,-0.72
4.183e-03,-0.6,-0.52
4.185e-03,-0.62,-0.78
4.187e-03,-0.7,-0.62
4.189e-03,-0.68,-0.88
4.191e-03,-0.84,-0.66
4.193e-03,-0.78,-0.9
4.194e-03,-0.86,-0.74
4.196e-03,-0.84,-0.92
4.198e-03,-0.86,-0.7
4.200e-03,-0.76,-0.86
4.202e-03,-0.74,-0.66
4.204e-03,-0.74,-0.8
4.206e-03,-0.72,-0.68
4.208e-03,-0.74,-0.78
4.210e-03,-0.68,-0.64
4.212e-03,-0.76,-0.78
4.214e-03,-0.64,-0.64
4.216e-03,-0.74,-0.78
4.217e-03,-0.62,-0.58
4.219e-03,-0.72,-0.76
4.221e-03,-0.68,-0.64
4.223e-03,-0.68,-0.74
4.225e-03,-0.62,-0.56
4.227e-03,-0.6,-0.66
4.229e-03,-0.6,-0.52
4.231e-03,-0.6,-0.78
4.233e-03,-0.72,-0.58
4.235e-03,-0.68,-0.78
4.237e-03,-0.74,-0.64
4.239e-03,-0.66,-0.76
4.241e-03,-0.66,-0.58
4.242e-03,-0.66,-0.82
4.244e-03,-0.72,-0.64
4.246e-03,-0.74,-0.88
4.248e-03,-0.8,-0.7
4.250e-03,-0.84,-0.92
4.252e-03,-0.84,-0.78
4.254e-03,-0.88,-0.9
4.256e-03,-0.76,-0.7
4.258e-03,-0.78,-0.8
4.260e-03,-0.68,-0.6
4.262e-03,-0.66,-0.76
4.264e-03,-0.6,-0.58
4.265e-03,-0.76,-0.84
4.267e-03,-0.74,-0.7
4.269e-03,-0.78,-0.9
4.271e-03,-0.8,-0.68
4.273e-03,-0.78,-0.9
4.275e-03,-0.8,-0.68
4.277e-03,-0.82,-0.88
4.279e-03,-0.76,-0.68
4.281e-03,-0.74,-0.82
4.283e-03,-0.76,-0.68
4.285e-03,-0.74,-0.88
4.287e-03,-0.86,-0.7
4.289e-03,-0.74,-0.9
4.290e-03,-0.82,-0.72
4.292e-03,-0.84,-0.96
4.294e-03,-0.9,-0.7
4.296e-03,-0.74,-0.78
4.298e-03,-0.7,-0.62
4.300e-03,-0.66,-0.74
4.302e-03,-0.6,-0.54
4.304e-03,-0.72,-0.82
4.306e-03,-0.76,-0.66
4.308e-03,-0.74,-0.88
4.310e-03,-0.76,-0.7
4.312e-03,-0.84,-0.86
4.313e-03,-0.74,-0.72
4.315e-03,-0.78,-0.8
4.317e-03,-0.66,-0.62
4.319e-03,-0.7,-0.78
4.321e-03,-0.68,-0.62
4.323e-03,-0.68,-0.74
4.325e-03,-0.64,-0.56
4.327e-03,-0.62,-0.82
4.329e-03,-0.72,-0.58
4.331e-03,-0.74,-0.88
4.333e-03,-0.84,-0.72
4.335e-03,-0.78,-0.92
4.337e-03,-0.82,-0.68
4.338e-03,-0.7,-0.8
4.340e-03,-0.74,-0.64
4.342e-03,-0.72,-0.82
4.344e-03,-0.74,-0.68
4.346e-03,-0.72,-0.78
4.348e-03,-0.66,-0.58
4.350e-03,-0.7,-0.78
4.352e-03,-0.64,-0.6
4.354e-03,-0.76,-0.78
4.356e-03,-0.62,-0.6
4.358e-03,-0.74,-0.78
4.360e-03,-0.66,-0.62
4.361e-03,-0.7,-0.74
4.363e-03,-0.6,-0.54
4.365e-03,-0.66,-0.68
4.367e-03,-0.6,-0.56
4.369e-03,-0.64,-0.7
4.371e-03,-0.58,-0.52
4.373e-03,-0.62,-0.68
4.375e-03,-0.6,-0.52
4.377e-03,-0.6,-0.86
4.379e-03,-0.7,-0.56
4.381e-03,-0.8,-0.86
4.383e-03,-0.8,-0.66
4.385e-03,-0.66,-0.74
4.386e-03,-0.64,-0.52
4.388e-03,-0.52,-0.7
4.390e-03,-0.66,-0.52
4.392e-03,-0.58,-0.86
4.394e-03,-0.76,-0.56
4.396e-03,-0.8,-0.84
4.398e-03,-0.72,-0.64
4.400e-03,-0.7,-0.8
4.402e-03,-0.7,-0.64
4.404e-03,-0.74,-0.86
4.406e-03,-0.78,-0.7
4.408e-03,-0.84,-0.9
4.409e-03,-0.82,-0.76
4.411e-03,-0.84,-0.86
4.413e-03,-0.76,-0.72
4.415e-03,-0.78,-0.82
4.417e-03,-0.7,-0.66
4.419e-03,-0.74,-0.8
4.421e-03,-0.66,-0.64
4.423e-03,-0.76,-0.82
4.425e-03,-0.76,-0.68
4.427e-03,-0.7,-0.76
4.429e-03,-0.7,-0.6
4.431e-03,-0.66,-0.76
4.433e-03,-0.7,-0.62
4.434e-03,-0.66,-0.82
4.436e-03,-0.76,-0.64
4.438e-03,-0.74,-0.94
4.440e-03,-0.82,-0.7
4.442e-03,-0.86,-0.92
4.444e-03,-0.86,-0.74
4.446e-03,-0.8,-0.9
4.448e-03,-0.84,-0.74
4.450e-03,-0.8,-0.84
4.452e-03,-0.64,-0.6
4.454e-03,-0.72,-0.82
4.456e-03,-0.76,-0.66
4.457e-03,-0.78,-0.84
4.459e-03,-0.68,-0.66
4.461e-03,-0.78,-0.86
4.463e-03,-0.8,-0.68
4.465e-03,-0.78,-0.8
4.467e-03,-0.68,-0.6
4.469e-03,-0.68,-0.7
4.471e-03,-0.56,-0.52
4.473e-03,-0.64,-0.86
4.475e-03,-0.72,-0.58
4.477e-03,-0.8,-0.86
4.479e-03,-0.82,-0.7
4.481e-03,-0.7,-0.84
4.482e-03,-0.8,-0.68
4.484e-03,-0.74,-0.82
4.486e-03,-0.76,-0.6
4.488e-03,-0.62,-0.72
4.490e-03,-0.68,-0.6
4.492e-03,-0.6,-0.78
4.494e-03,-0.6,-0.54
4.496e-03,-0.74,-0.8
4.498e-03,-0.64,-0.58
4.500e-03,-0.72,-0.84
4.502e-03,-0.74,-0.66
4.504e-03,-0.72,-0.78
4.505e-03,-0.64,-0.6
4.507e-03,-0.72,-0.8
4.509e-03,-0.68,-0.64
4.511e-03,-0.8,-0.84
4.513e-03,-0.68,-0.66
4.515e-03,-0.76,-0.84
4.517e-03,-0.72,-0.68
4.519e-03,-0.76,-0.84
4.521e-03,-0.72,-0.66
4.523e-03,-0.7,-0.84
4.525e-03,-0.76,-0.62
4.527e-03,-0.7,-0.8
4.529e-03,-0.78,-0.64
4.530e-03,-0.68,-0.84
4.532e-03,-0.8,-0.64
4.534e-03,-0.78,-0.9
4.536e-03,-0.78,-0.7
4.538e-03,-0.8,-0.88
4.540e-03,-0.78,-0.7
4.542e-03,-0.74,-0.82
4.544e-03,-0.74,-0.62
4.546e-03,-0.68,-0.76
4.548e-03,-0.66,-0.56
4.550e-03,-0.64,-0.78
4.552e-03,-0.66,-0.58
4.553e-03,-0.76,-0.88
4.555e-03,-0.74,-0.72
4.557e-03,-0.88,-0.9
4.559e-03,-0.72,-0.66
4.561e-03,-0.72,-0.76
4.563e-03,-0.66,-0.6
4.565e-03,-0.7,-0.8
4.567e-03,-0.68,-0.62
4.569e-03,-0.76,-0.8
4.571e-03,-0.7,-0.64
4.573e-03,-0.74,-0.92
4.575e-03,-0.84,-0.7
4.577e-03,-0.86,-0.94
4.578e-03,-0.88,-0.7
4.580e-03,-0.74,-0.88
4.582e-03,-0.84,-0.72
4.584e-03,-0.78,-0.92
4.586e-03,-0.88,-0.74
4.588e-03,-0.8,-0.92
4.590e-03,-0.82,-0.76
4.592e-03,-0.84,-0.94
4.594e-03,-0.86,-0.78
4.596e-03,-0.86,-0.92
4.598e-03,-0.82,-0.74
4.600e-03,-0.8,-0.86
4.601e-03,-0.78,-0.72
4.603e-03,-0.84,-0.86
4.605e-03,-0.76,-0.7
4.607e-03,-0.82,-0.9
4.609e-03,-0.82,-0.74
4.611e-03,-0.84,-0.94
4.613e-03,-0.8,-0.76
4.615e-03,-0.92,-0.96
4.617e-03,-0.82,-0.78
4.619e-03,-0.84,-0.88
4.621e-03,-0.78,-0.68
4.623e-03,-0.72,-0.9
4.625e-03,-0.8,-0.66
4.626e-03,-0.82,-0.9
4.628e-03,-0.86,-0.72
4.630e-03,-0.72,-0.78
4.632e-03,-0.74,-0.64
4.634e-03,-0.68,-0.88
4.636e-03,-0.8,-0.66
4.638e-03,-0.8,-0.96
4.640e-03,-0.9,-0.78
4.642e-03,-0.92,-0.98
4.644e-03,-0.9,-0.72
4.646e-03,-0.76,-0.84
4.648e-03,-0.76,-0.7
4.649e-03,-0.82,-0.86
4.651e-03,-0.66,-0.64
4.653e-03,-0.78,-0.92
4.655e-03,-0.8,-0.72
4.657e-03,-0.88,-0.9
4.659e-03,-0.7,-0.66
4.661e-03,-0.74,-0.9
4.663e-03,-0.82,-0.68
4.665e-03,-0.84,-0.9
4.667e-03,-0.8,-0.7
4.669e-03,-0.72,-0.8
4.671e-03,-0.7,-0.62
4.673e-03,-0.7,-0.8
4.674e-03,-0.74,-0.64
4.676e-03,-0.76,-0.82
4.678e-03,-0.78,-0.58
4.680e-03,-0.6,-0.78
4.682e-03,-0.76,-0.6
4.684e-03,-0.7,-0.84
4.686e-03,-0.8,-0.7
4.688e-03,-0.72,-0.86
4.690e-03,-0.8,-0.7
4.692e-03,-0.72,-0.8
4.694e-03,-0.7,-0.64
4.696e-03,-0.7,-0.82
4.697e-03,-0.72,-0.64
4.699e-03,-0.78,-0.88
4.701e-03,-0.74,-0.7
4.703e-03,-0.86,-0.88
4.705e-03,-0.76,-0.72
4.707e-03,-0.84,-0.88
4.709e-03,-0.66,-0.56
4.711e-03,-0.62,-0.74
4.713e-03,-0.66,-0.52
4.715e-03,-0.7,-0.78
4.717e-03,-0.66,-0.6
4.719e-03,-0.74,-0.82
4.721e-03,-0.76,-0.66
4.722e-03,-0.74,-0.86
4.724e-03,-0.82,-0.66
4.726e-03,-0.68,-0.74
4.728e-03,-0.68,-0.58
4.730e-03,-0.66,-0.86
4.732e-03,-0.84,-0.66
4.734e-03,-0.72,-0.82
4.736e-03,-0.78,-0.66
4.738e-03,-0.7,-0.78
4.740e-03,-0.64,-0.58
4.742e-03,-0.72,-0.82
4.744e-03,-0.7,-0.66
4.745e-03,-0.78,-0.9
4.747e-03,-0.8,-0.74
4.749e-03,-0.82,-0.9
4.751e-03,-0.78,-0.74
4.753e-03,-0.88,-0.88
4.755e-03,-0.7,-0.66
4.757e-03,-0.76,-0.78
4.759e-03,-0.58,-0.58
4.761e-03,-0.68,-0.74
4.763e-03,-0.6,-0.58
4.765e-03,-0.68,-0.8
4.767e-03,-0.74,-0.66
4.769e-03,-0.72,-0.84
4.770e-03,-0.74,-0.7
4.772e-03,-0.76,-0.88
4.774e-03,-0.78,-0.7
4.776e-03,-0.8,-0.86
4.778e-03,-0.7,-0.6
4.780e-03,-0.6,-0.82
4.782e-03,-0.78,-0.58
4.784e-03,-0.66,-0.76
4.786e-03,-0.72,-0.64
4.788e-03,-0.72,-0.84
4.790e-03,-0.76,-0.66
4.792e-03,-0.72,-0.78
4.794e-03,-0.7,-0.62
4.795e-03,-0.68,-0.8
4.797e-03,-0.64,-0.6
4.799e-03,-0.78,-0.82
4.801e-03,-0.68,-0.66
4.803e-03,-0.76,-0.9
4.805e-03,-0.8,-0.7
4.807e-03,-0.86,-0.92
4.809e-03,-0.86,-0.7
4.811e-03,-0.8,-0.86
4.813e-03,-0.78,-0.7
4.815e-03,-0.8,-0.86
4.817e-03,-0.82,-0.72
4.818e-03,-0.8,-0.88
4.820e-03,-0.84,-0.72
4.822e-03,-0.74,-0.82
4.824e-03,-0.78,-0.68
4.826e-03,-0.7,-0.8
4.828e-03,-0.72,-0.58
4.830e-03,-0.62,-0.84
4.832e-03,-0.78,-0.58
4.834e-03,-0.7,-0.78
4.836e-03,-0.66,-0.54
4.838e-03,-0.58,-0.74
4.840e-03,-0.68,-0.56
4.842e-03,-0.7,-0.76
4.843e-03,-0.68,-0.62
4.845e-03,-0.7,-0.82
4.847e-03,-0.72,-0.66
4.849e-03,-0.8,-0.84
4.851e-03,-0.74,-0.72
4.853e-03,-0.8,-0.82
4.855e-03,-0.7,-0.62
4.857e-03,-0.7,-0.82
4.859e-03,-0.72,-0.62
4.861e-03,-0.74,-0.78
4.863e-03,-0.68,-0.62
4.865e-03,-0.7,-0.82
4.866e-03,-0.7,-0.64
4.868e-03,-0.76,-0.88
4.870e-03,-0.84,-0.72
4.872e-03,-0.72,-0.86
4.874e-03,-0.86,-0.68
4.876e-03,-0.7,-0.76
4.878e-03,-0.66,-0.54
4.880e-03,-0.58,-0.8
4.882e-03,-0.78,-0.56
4.884e-03,-0.72,-0.84
4.886e-03,-0.78,-0.68
4.888e-03,-0.8,-0.88
4.890e-03,-0.82,-0.7
4.891e-03,-0.76,-0.82
4.893e-03,-0.72,-0.68
4.895e-03,-0.76,-0.8
4.897e-03,-0.68,-0.62
4.899e-03,-0.72,-0.9
4.901e-03,-0.72,-0.64
4.903e-03,-0.88,-0.92
4.905e-03,-0.8,-0.76
4.907e-03,-0.86,-0.88
4.909e-03,-0.78,-0.74
4.911e-03,-0.8,-0.84
4.913e-03,-0.72,-0.6
4.914e-03,-0.66,-0.78
4.916e-03,-0.66,-0.6
4.918e-03,-0.7,-0.76
4.920e-03,-0.7,-0.64
4.922e-03,-0.68,-0.88
4.924e-03,-0.8,-0.66
4.926e-03,-0.8,-0.9
4.928e-03,-0.82,-0.72
4.930e-03,-0.82,-0.92
4.932e-03,-0.86,-0.78
4.934e-03,-0.82,-0.92
4.936e-03,-0.84,-0.68
4.938e-03,-0.7,-0.8
4.939e-03,-0.72,-0.64
4.941e-03,-0.7,-0.78
4.943e-03,-0.72,-0.64
4.945e-03,-0.72,-0.78
4.947e-03,-0.68,-0.58
4.949e-03,-0.66,-0.72
4.951e-03,-0.62,-0.56
4.953e-03,-0.64,-0.7
4.955e-03,-0.62,-0.56
4.957e-03,-0.66,-0.74
4.959e-03,-0.64,-0.58
4.961e-03,-0.7,-0.74
4.962e-03,-0.66,-0.52
4.964e-03,-0.56,-0.74
4.966e-03,-0.66,-0.5
4.968e-03,-0.64,-0.82
4.970e-03,-0.76,-0.62
4.972e-03,-0.74,-0.9
4.974e-03,-0.86,-0.72
4.976e-03,-0.8,-0.92
4.978e-03,-0.88,-0.78
4.980e-03,-0.86,-0.94
4.982e-03,-0.92,-0.76
4.984e-03,-0.8,-0.86
4.986e-03,-0.76,-0.64
4.987e-03,-0.66,-0.78
4.989e-03,-0.7,-0.62
4.991e-03,-0.74,-0.78
4.993e-03,-0.72,-0.66
4.995e-03,-0.72,-0.78
4.997e-03,-0.7,-0.66
4.999e-03,-0.76,-0.9
5.001e-03,-0.7,-0.66
5.003e-03,-0.9,-0.94
5.005e-03,-0.76,-0.66
5.007e-03,-0.72,-0.76
5.009e-03,-0.6,-0.56
5.010e-03,-0.64,-0.72
5.012e-03,-0.62,-0.58
5.014e-03,-0.64,-0.8
5.016e-03,-0.72,-0.6
5.018e-03,-0.7,-0.78
5.020e-03,-0.74,-0.62
5.022e-03,-0.64,-0.9
5.024e-03,-0.8,-0.6
5.026e-03,-0.82,-0.92
5.028e-03,-0.88,-0.78
5.030e-03,-0.8,-0.92
5.032e-03,-0.82,-0.74
5.034e-03,-0.86,-0.96
5.035e-03,-0.82,-0.76
5.037e-03,-0.84,-0.9
5.039e-03,-0.78,-0.74
5.041e-03,-0.8,-0.82
5.043e-03,-0.7,-0.62
5.045e-03,-0.68,-0.74
5.047e-03,-0.58,-0.56
5.049e-03,-0.68,-0.78
5.051e-03,-0.66,-0.62
5.053e-03,-0.74,-0.86
5.055e-03,-0.76,-0.68
5.057e-03,-0.78,-0.82
5.058e-03,-0.74,-0.68
5.060e-03,-0.76,-0.8
5.062e-03,-0.7,-0.6
5.064e-03,-0.64,-0.74
5.066e-03,-0.64,-0.58
5.068e-03,-0.68,-0.86
5.070e-03,-0.76,-0.6
5.072e-03,-0.76,-0.86
5.074e-03,-0.78,-0.7
5.076e-03,-0.76,-0.86
5.078e-03,-0.8,-0.66
5.080e-03,-0.7,-0.86
5.082e-03,-0.82,-0.66
5.083e-03,-0.78,-0.88
5.085e-03,-0.86,-0.74
5.087e-03,-0.82,-0.9
5.089e-03,-0.82,-0.76
5.091e-03,-0.88,-0.92
5.093e-03,-0.8,-0.74
5.095e-03,-0.82,-0.86
5.097e-03,-0.74,-0.7
5.099e-03,-0.8,-0.88
5.101e-03,-0.74,-0.7
5.103e-03,-0.86,-0.9
5.105e-03,-0.8,-0.72
5.106e-03,-0.8,-0.82
5.108e-03,-0.72,-0.66
5.110e-03,-0.72,-0.78
5.112e-03,-0.7,-0.64
5.114e-03,-0.72,-0.8
5.116e-03,-0.74,-0.68
5.118e-03,-0.7,-0.84
5.120e-03,-0.74,-0.64
5.122e-03,-0.7,-0.8
5.124e-03,-0.78,-0.68
5.126e-03,-0.68,-0.78
5.128e-03,-0.62,-0.54
5.130e-03,-0.68,-0.78
5.131e-03,-0.74,-0.62
5.133e-03,-0.64,-0.74
5.135e-03,-0.64,-0.58
5.137e-03,-0.68,-0.72
5.139e-03,-0.62,-0.58
5.141e-03,-0.68,-0.76
5.143e-03,-0.66,-0.6
5.145e-03,-0.72,-0.8
5.147e-03,-0.7,-0.64
5.149e-03,-0.72,-0.86
5.151e-03,-0.76,-0.66
5.153e-03,-0.74,-0.8
5.154e-03,-0.74,-0.66
5.156e-03,-0.76,-0.84
5.158e-03,-0.74,-0.66
5.160e-03,-0.82,-0.9
5.162e-03,-0.84,-0.76
5.164e-03,-0.8,-0.88
5.166e-03,-0.84,-0.7
5.168e-03,-0.7,-0.82
5.170e-03,-0.76,-0.68
5.172e-03,-0.72,-0.84
5.174e-03,-0.8,-0.7
5.176e-03,-0.76,-0.9
5.178e-03,-0.82,-0.74
5.179e-03,-0.8,-0.88
5.181e-03,-0.76,-0.62
5.183e-03,-0.66,-0.74
5.185e-03,-0.68,-0.6
5.187e-03,-0.66,-0.82
5.189e-03,-0.74,-0.64
5.191e-03,-0.7,-0.76
5.193e-03,-0.66,-0.6
5.195e-03,-0.68,-0.74
5.197e-03,-0.52,-0.5
5.199e-03,-0.74,-0.84
5.201e-03,-0.72,-0.68
5.202e-03,-0.8,-0.9
5.204e-03,-0.76,-0.72
5.206e-03,-0.86,-0.92
5.208e-03,-0.8,-0.74
5.210e-03,-0.78,-0.84
5.212e-03,-0.72,-0.6
5.214e-03,-0.66,-0.8
5.216e-03,-0.72,-0.6
5.218e-03,-0.72,-0.82
5.220e-03,-0.74,-0.66
5.222e-03,-0.72,-0.88
5.224e-03,-0.84,-0.68
5.226e-03,-0.78,-0.86
5.227e-03,-0.8,-0.72
5.229e-03,-0.74,-0.84
5.231e-03,-0.78,-0.7
5.233e-03,-0.76,-0.82
5.235e-03,-0.76,-0.66
5.237e-03,-0.72,-0.82
5.239e-03,-0.7,-0.64
5.241e-03,-0.82,-0.88
5.243e-03,-0.78,-0.68
5.245e-03,-0.72,-0.76
5.247e-03,-0.56,-0.54
5.249e-03,-0.62,-0.8
5.250e-03,-0.74,-0.56
5.252e-03,-0.76,-0.78
5.254e-03,-0.7,-0.66
5.256e-03,-0.74,-0.88
5.258e-03,-0.76,-0.64
5.260e-03,-0.82,-0.86
5.262e-03,-0.76,-0.72
5.264e-03,-0.78,-0.82
5.266e-03,-0.8,-0.7
5.268e-03,-0.74,-0.84
5.270e-03,-0.8,-0.68
5.272e-03,-0.7,-0.78
5.274e-03,-0.72,-0.6
5.275e-03,-0.62,-0.76
5.277e-03,-0.68,-0.6
5.279e-03,-0.64,-0.8
5.281e-03,-0.72,-0.6
5.283e-03,-0.72,-0.84
5.285e-03,-0.72,-0.66
5.287e-03,-0.8,-0.88
5.289e-03,-0.78,-0.74
5.291e-03,-0.82,-0.86
5.293e-03,-0.76,-0.72
5.295e-03,-0.84,-0.88
5.297e-03,-0.78,-0.7
5.298e-03,-0.8,-0.9
5.300e-03,-0.76,-0.7
5.302e-03,-0.84,-0.88
5.304e-03,-0.76,-0.72
5.306e-03,-0.8,-0.84
5.308e-03,-0.72,-0.66
5.310e-03,-0.7,-0.78
5.312e-03,-0.7,-0.64
5.314e-03,-0.68,-0.8
5.316e-03,-0.78,-0.64
5.318e-03,-0.64,-0.74
5.320e-03,-0.68,-0.58
5.322e-03,-0.6,-0.7
5.323e-03,-0.64,-0.52
5.325e-03,-0.58,-0.74
5.327e-03,-0.66,-0.52
5.329e-03,-0.66,-0.76
5.331e-03,-0.68,-0.6
5.333e-03,-0.7,-0.76
5.335e-03,-0.66,-0.6
5.337e-03,-0.72,-0.76
5.339e-03,-0.6,-0.56
5.341e-03,-0.68,-0.76
5.343e-03,-0.66,-0.62
5.345e-03,-0.7,-0.78
5.346e-03,-0.64,-0.62
5.348e-03,-0.78,-0.8
5.350e-03,-0.7,-0.64
5.352e-03,-0.72,-0.8
5.354e-03,-0.72,-0.64
5.356e-03,-0.78,-0.82
5.358e-03,-0.66,-0.58
5.360e-03,-0.64,-0.74
5.362e-03,-0.7,-0.6
5.364e-03,-0.66,-0.76
5.366e-03,-0.72,-0.6
5.368e-03,-0.64,-0.74
5.370e-03,-0.7,-0.58
5.371e-03,-0.66,-0.9
5.373e-03,-0.84,-0.64
5.375e-03,-0.78,-0.86
5.377e-03,-0.68,-0.54
5.379e-03,-0.56,-0.7
5.381e-03,-0.56,-0.48
5.383e-03,-0.62,-0.86
5.385e-03,-0.74,-0.6
5.387e-03,-0.8,-0.86
5.389e-03,-0.74,-0.7
5.391e-03,-0.82,-0.86
5.393e-03,-0.76,-0.7
5.395e-03,-0.78,-0.82
5.396e-03,-0.62,-0.6
5.398e-03,-0.7,-0.86
5.400e-03,-0.78,-0.64
5.402e-03,-0.78,-0.82
5.404e-03,-0.66,-0.58
5.406e-03,-0.64,-0.76
5.408e-03,-0.72,-0.6
5.410e-03,-0.64,-0.74
5.412e-03,-0.7,-0.58
5.414e-03,-0.64,-0.82
5.416e-03,-0.78,-0.62
5.418e-03,-0.72,-0.9
5.419e-03,-0.86,-0.7
5.421e-03,-0.76,-0.82
5.423e-03,-0.78,-0.68
5.425e-03,-0.7,-0.8
5.427e-03,-0.74,-0.64
5.429e-03,-0.72,-0.84
5.431e-03,-0.72,-0.66
5.433e-03,-0.82,-0.96
5.435e-03,-0.86,-0.78
5.437e-03,-0.92,-0.96
5.439e-03,-0.88,-0.84
5.441e-03,-0.9,-1
5.443e-03,-0.86,-0.76
5.444e-03,-0.86,-0.86
5.446e-03,-0.74,-0.68
5.448e-03,-0.74,-0.8
5.450e-03,-0.68,-0.64
5.452e-03,-0.76,-0.8
5.454e-03,-0.66,-0.6
5.456e-03,-0.68,-0.76
5.458e-03,-0.68,-0.62
5.460e-03,-0.68,-0.8
5.462e-03,-0.74,-0.62
5.464e-03,-0.66,-0.74
5.466e-03,-0.7,-0.58
5.467e-03,-0.6,-0.7
5.469e-03,-0.64,-0.56
5.471e-03,-0.62,-0.82
5.473e-03,-0.76,-0.62
5.475e-03,-0.76,-0.88
5.477e-03,-0.82,-0.68
5.479e-03,-0.72,-0.78
5.481e-03,-0.66,-0.54
5.483e-03,-0.58,-0.64
5.485e-03,-0.54,-0.5
5.487e-03,-0.62,-0.72
5.489e-03,-0.62,-0.54
5.491e-03,-0.62,-0.66
5.492e-03,-0.54,-0.48
5.494e-03,-0.54,-0.72
5.496e-03,-0.6,-0.46
5.498e-03,-0.74,-0.76
5.500e-03,-0.62,-0.6
5.502e-03,-0.74,-0.76
5.504e-03,-0.64,-0.56
5.506e-03,-0.64,-0.7
5.508e-03,-0.64,-0.54
5.510e-03,-0.58,-0.66
5.512e-03,-0.64,-0.52
5.514e-03,-0.54,-0.66
5.515e-03,-0.6,-0.5
5.517e-03,-0.54,-0.7
5.519e-03,-0.62,-0.52
5.521e-03,-0.64,-0.78
5.523e-03,-0.72,-0.6
5.525e-03,-0.7,-0.76
5.527e-03,-0.68,-0.58
5.529e-03,-0.68,-0.74
5.531e-03,-0.68,-0.6
5.533e-03,-0.66,-0.76
5.535e-03,-0.68,-0.6
5.537e-03,-0.72,-0.8
5.539e-03,-0.7,-0.64
5.540e-03,-0.76,-0.76
5.542e-03,-0.66,-0.64
5.544e-03,-0.74,-0.78
5.546e-03,-0.7,-0.62
5.548e-03,-0.72,-0.88
5.550e-03,-0.74,-0.64
5.552e-03,-0.78,-0.86
5.554e-03,-0.72,-0.52
5.556e-03,-0.58,-0.72
5.558e-03,-0.66,-0.54
5.560e-03,-0.66,-0.86
5.562e-03,-0.76,-0.62
5.563e-03,-0.8,-0.9
5.565e-03,-0.86,-0.76
5.567e-03,-0.78,-0.86
5.569e-03,-0.74,-0.62
5.571e-03,-0.64,-0.74
5.573e-03,-0.58,-0.48
5.575e-03,-0.52,-0.7
5.577e-03,-0.58,-0.5
5.579e-03,-0.62,-0.68
5.581e-03,-0.58,-0.54
5.583e-03,-0.66,-0.78
5.585e-03,-0.68,-0.62
5.587e-03,-0.76,-0.78
5.588e-03,-0.6,-0.56
5.590e-03,-0.64,-0.86
5.592e-03,-0.7,-0.56
5.594e-03,-0.78,-0.82
5.596e-03,-0.68,-0.62
5.598e-03,-0.8,-0.82
5.600e-03,-0.76,-0.7
5.602e-03,-0.8,-0.82
5.604e-03,-0.7,-0.56
5.606e-03,-0.62,-0.78
5.608e-03,-0.66,-0.56
5.610e-03,-0.74,-0.86
5.611e-03,-0.82,-0.7
5.613e-03,-0.7,-0.8
5.615e-03,-0.78,-0.68
5.617e-03,-0.68,-0.84
5.619e-03,-0.76,-0.66
5.621e-03,-0.76,-0.86
5.623e-03,-0.72,-0.62
5.625e-03,-0.66,-0.78
5.627e-03,-0.72,-0.62
5.629e-03,-0.68,-0.76
5.631e-03,-0.66,-0.6
5.633e-03,-0.72,-0.78
5.635e-03,-0.62,-0.58
5.636e-03,-0.64,-0.72
5.638e-03,-0.6,-0.56
5.640e-03,-0.7,-0.72
5.642e-03,-0.58,-0.54
5.644e-03,-0.62,-0.7
5.646e-03,-0.56,-0.54
5.648e-03,-0.66,-0.84
5.650e-03,-0.68,-0.6
5.652e-03,-0.78,-0.9
5.654e-03,-0.84,-0.74
5.656e-03,-0.84,-0.9
5.658e-03,-0.82,-0.68
5.659e-03,-0.68,-0.8
5.661e-03,-0.74,-0.58
5.663e-03,-0.7,-0.88
5.665e-03,-0.82,-0.68
5.667e-03,-0.78,-0.86
5.669e-03,-0.78,-0.68
5.671e-03,-0.7,-0.78
5.673e-03,-0.7,-0.62
5.675e-03,-0.68,-0.78
5.677e-03,-0.68,-0.62
5.679e-03,-0.74,-0.86
5.681e-03,-0.8,-0.7
5.683e-03,-0.76,-0.82
5.684e-03,-0.74,-0.66
5.686e-03,-0.74,-0.84
5.688e-03,-0.72,-0.64
5.690e-03,-0.86,-0.88
5.692e-03,-0.74,-0.72
5.694e-03,-0.86,-0.88
5.696e-03,-0.76,-0.6
5.698e-03,-0.68,-0.76
5.700e-03,-0.66,-0.54
5.702e-03,-0.62,-0.7
5.704e-03,-0.6,-0.54
5.706e-03,-0.64,-0.78
5.707e-03,-0.72,-0.6
5.709e-03,-0.7,-0.76
5.711e-03,-0.7,-0.6
5.713e-03,-0.7,-0.78
5.715e-03,-0.72,-0.56
5.717e-03,-0.58,-0.78
5.719e-03,-0.72,-0.58
5.721e-03,-0.64,-0.76
5.723e-03,-0.7,-0.6
5.725e-03,-0.62,-0.8
5.727e-03,-0.72,-0.6
5.729e-03,-0.74,-0.82
5.731e-03,-0.7,-0.66
5.732e-03,-0.76,-0.82
5.734e-03,-0.72,-0.68
5.736e-03,-0.78,-0.8
5.738e-03,-0.72,-0.68
5.740e-03,-0.78,-0.84
5.742e-03,-0.72,-0.7
5.744e-03,-0.8,-0.86
5.746e-03,-0.76,-0.72
5.748e-03,-0.82,-0.88
5.750e-03,-0.78,-0.72
5.752e-03,-0.8,-0.84
5.754e-03,-0.74,-0.68
5.755e-03,-0.7,-0.78
5.757e-03,-0.74,-0.62
5.759e-03,-0.64,-0.72
5.761e-03,-0.66,-0.54
5.763e-03,-0.56,-0.72
5.765e-03,-0.66,-0.54
5.767e-03,-0.64,-0.82
5.769e-03,-0.78,-0.62
5.771e-03,-0.74,-0.82
5.773e-03,-0.74,-0.66
5.775e-03,-0.72,-0.82
5.777e-03,-0.78,-0.68
5.779e-03,-0.78,-0.84
5.780e-03,-0.74,-0.68
5.782e-03,-0.78,-0.78
5.784e-03,-0.66,-0.6
5.786e-03,-0.68,-0.74
5.788e-03,-0.64,-0.58
5.790e-03,-0.74,-0.76
5.792e-03,-0.66,-0.58
5.794e-03,-0.68,-0.72
5.796e-03,-0.64,-0.58
5.798e-03,-0.66,-0.74
5.800e-03,-0.66,-0.58
5.802e-03,-0.66,-0.76
5.803e-03,-0.7,-0.6
5.805e-03,-0.64,-0.8
5.807e-03,-0.72,-0.62
5.809e-03,-0.72,-0.84
5.811e-03,-0.82,-0.68
5.813e-03,-0.7,-0.84
5.815e-03,-0.78,-0.68
5.817e-03,-0.68,-0.78
5.819e-03,-0.7,-0.6
5.821e-03,-0.7,-0.78
5.823e-03,-0.66,-0.64
5.825e-03,-0.7,-0.76
5.827e-03,-0.64,-0.58
5.828e-03,-0.64,-0.72
5.830e-03,-0.58,-0.54
5.832e-03,-0.72,-0.74
5.834e-03,-0.6,-0.54
5.836e-03,-0.62,-0.76
5.838e-03,-0.58,-0.54
5.840e-03,-0.76,-0.8
5.842e-03,-0.68,-0.66
5.844e-03,-0.76,-0.82
5.846e-03,-0.72,-0.66
5.848e-03,-0.76,-0.84
5.850e-03,-0.76,-0.7
5.851e-03,-0.74,-0.82
5.853e-03,-0.76,-0.66
5.855e-03,-0.66,-0.8
5.857e-03,-0.72,-0.66
5.859e-03,-0.68,-0.76
5.861e-03,-0.64,-0.56
5.863e-03,-0.66,-0.78
5.865e-03,-0.74,-0.64
5.867e-03,-0.74,-0.8
5.869e-03,-0.78,-0.66
5.871e-03,-0.68,-0.82
5.873e-03,-0.8,-0.66
5.875e-03,-0.78,-0.94
5.876e-03,-0.88,-0.72
5.878e-03,-0.82,-0.88
5.880e-03,-0.72,-0.66
5.882e-03,-0.86,-0.9
5.884e-03,-0.78,-0.76
5.886e-03,-0.88,-0.88
5.888e-03,-0.76,-0.64
5.890e-03,-0.72,-0.74
5.892e-03,-0.64,-0.6
5.894e-03,-0.7,-0.76
5.896e-03,-0.68,-0.62
5.898e-03,-0.7,-0.74
5.899e-03,-0.64,-0.54
5.901e-03,-0.58,-0.7
5.903e-03,-0.6,-0.5
5.905e-03,-0.64,-0.78
5.907e-03,-0.74,-0.6
5.909e-03,-0.68,-0.74
5.911e-03,-0.68,-0.58
5.913e-03,-0.62,-0.76
5.915e-03,-0.74,-0.6
5.917e-03,-0.64,-0.8
5.919e-03,-0.78,-0.62
5.921e-03,-0.74,-0.86
5.923e-03,-0.72,-0.68
5.924e-03,-0.8,-0.88
5.926e-03,-0.76,-0.64
5.928e-03,-0.72,-0.82
5.930e-03,-0.68,-0.64
5.932e-03,-0.8,-0.84
5.934e-03,-0.7,-0.66
5.936e-03,-0.72,-0.76
5.938e-03,-0.68,-0.62
5.940e-03,-0.72,-0.82
5.942e-03,-0.74,-0.62
5.944e-03,-0.74,-0.76
5.946e-03,-0.68,-0.62
5.947e-03,-0.68,-0.78
5.949e-03,-0.7,-0.54
5.951e-03,-0.56,-0.76
5.953e-03,-0.64,-0.52
5.955e-03,-0.7,-0.88
5.957e-03,-0.78,-0.66
5.959e-03,-0.78,-0.86
5.961e-03,-0.7,-0.62
5.963e-03,-0.74,-0.82
5.965e-03,-0.78,-0.66
5.967e-03,-0.68,-0.82
5.969e-03,-0.76,-0.64
5.971e-03,-0.74,-0.8
5.972e-03,-0.74,-0.68
5.974e-03,-0.74,-0.8
5.976e-03,-0.66,-0.56
5.978e-03,-0.62,-0.66
5.980e-03,-0.58,-0.54
5.982e-03,-0.62,-0.8
5.984e-03,-0.64,-0.58
5.986e-03,-0.8,-0.92
5.988e-03,-0.8,-0.72
5.990e-03,-0.84,-0.88
5.992e-03,-0.7,-0.66
5.994e-03,-0.72,-0.78
5.995e-03,-0.7,-0.6
5.997e-03,-0.64,-0.78
5.999e-03,-0.66,-0.6
6.001e-03,-0.72,-0.78
6.003e-03,-0.66,-0.58
6.005e-03,-0.62,-0.76
6.007e-03,-0.74,-0.6
6.009e-03,-0.62,-0.78
6.011e-03,-0.7,-0.6
6.013e-03,-0.66,-0.84
6.015e-03,-0.72,-0.58
6.017e-03,-0.74,-0.82
6.019e-03,-0.76,-0.66
6.020e-03,-0.72,-0.82
6.022e-03,-0.7,-0.62
6.024e-03,-0.76,-0.8
6.026e-03,-0.66,-0.6
6.028e-03,-0.68,-0.76
6.030e-03,-0.64,-0.6
6.032e-03,-0.72,-0.74
6.034e-03,-0.64,-0.62
6.036e-03,-0.72,-0.76
6.038e-03,-0.66,-0.62
6.040e-03,-0.74,-0.78
6.042e-03,-0.66,-0.58
6.044e-03,-0.66,-0.7
6.045e-03,-0.64,-0.56
6.047e-03,-0.62,-0.74
6.049e-03,-0.66,-0.52
6.051e-03,-0.62,-0.74
6.053e-03,-0.64,-0.58
6.055e-03,-0.66,-0.74
6.057e-03,-0.72,-0.6
6.059e-03,-0.64,-0.72
6.061e-03,-0.66,-0.52
6.063e-03,-0.58,-0.78
6.065e-03,-0.76,-0.54
6.067e-03,-0.68,-0.84
6.068e-03,-0.76,-0.66
6.070e-03,-0.76,-0.84
6.072e-03,-0.76,-0.66
6.074e-03,-0.72,-0.78
6.076e-03,-0.68,-0.64
6.078e-03,-0.74,-0.82
6.080e-03,-0.68,-0.66
6.082e-03,-0.8,-0.84
6.084e-03,-0.76,-0.64
6.086e-03,-0.72,-0.76
6.088e-03,-0.64,-0.54
6.090e-03,-0.62,-0.74
6.092e-03,-0.64,-0.56
6.093e-03,-0.68,-0.88
6.095e-03,-0.76,-0.64
6.097e-03,-0.82,-0.92
6.099e-03,-0.86,-0.72
6.101e-03,-0.72,-0.8
6.103e-03,-0.76,-0.64
6.105e-03,-0.66,-0.74
6.107e-03,-0.66,-0.6
6.109e-03,-0.6,-0.78
6.111e-03,-0.68,-0.58
6.113e-03,-0.7,-0.84
6.115e-03,-0.8,-0.66
6.116e-03,-0.76,-0.82
6.118e-03,-0.74,-0.64
6.120e-03,-0.68,-0.86
6.122e-03,-0.7,-0.62
6.124e-03,-0.82,-0.86
6.126e-03,-0.72,-0.6
6.128e-03,-0.68,-0.74
6.130e-03,-0.64,-0.58
6.132e-03,-0.72,-0.86
6.134e-03,-0.7,-0.64
6.136e-03,-0.82,-0.86
6.138e-03,-0.78,-0.74
6.140e-03,-0.82,-0.88
6.141e-03,-0.76,-0.72
6.143e-03,-0.84,-0.86
6.145e-03,-0.78,-0.72
6.147e-03,-0.76,-0.82
6.149e-03,-0.74,-0.62
6.151e-03,-0.64,-0.78
6.153e-03,-0.72,-0.6
6.155e-03,-0.7,-0.82
6.157e-03,-0.76,-0.62
6.159e-03,-0.66,-0.78
6.161e-03,-0.76,-0.6
6.163e-03,-0.6,-0.74
6.164e-03,-0.7,-0.58
6.166e-03,-0.62,-0.74
6.168e-03,-0.62,-0.52
6.170e-03,-0.58,-0.8
6.172e-03,-0.64,-0.52
6.174e-03,-0.8,-0.9
6.176e-03,-0.78,-0.72
6.178e-03,-0.82,-0.86
6.180e-03,-0.76,-0.68
6.182e-03,-0.74,-0.78
6.184e-03,-0.62,-0.56
6.186e-03,-0.7,-0.74
6.188e-03,-0.6,-0.58
6.189e-03,-0.68,-0.8
6.191e-03,-0.7,-0.64
6.193e-03,-0.74,-0.86
6.195e-03,-0.72,-0.66
6.197e-03,-0.8,-0.92
6.199e-03,-0.82,-0.68
6.201e-03,-0.72,-0.84
6.203e-03,-0.74,-0.64
6.205e-03,-0.76,-0.86
6.207e-03,-0.82,-0.72
6.209e-03,-0.76,-0.9
6.211e-03,-0.88,-0.74
6.212e-03,-0.76,-0.82
6.214e-03,-0.74,-0.64
6.216e-03,-0.72,-0.84
6.218e-03,-0.78,-0.68
6.220e-03,-0.74,-0.82
6.222e-03,-0.66,-0.64
6.224e-03,-0.78,-0.84
6.226e-03,-0.76,-0.68
6.228e-03,-0.74,-0.8
6.230e-03,-0.66,-0.64
6.232e-03,-0.74,-0.82
6.234e-03,-0.7,-0.64
6.236e-03,-0.78,-0.82
6.237e-03,-0.7,-0.68
6.239e-03,-0.76,-0.86
6.241e-03,-0.76,-0.7
6.243e-03,-0.74,-0.8
6.245e-03,-0.64,-0.54
6.247e-03,-0.58,-0.76
6.249e-03,-0.62,-0.54
6.251e-03,-0.68,-0.78
6.253e-03,-0.74,-0.64
6.255e-03,-0.64,-0.78
6.257e-03,-0.78,-0.6
6.259e-03,-0.62,-0.68
6.260e-03,-0.6,-0.52
6.262e-03,-0.58,-0.68
6.264e-03,-0.6,-0.52
6.266e-03,-0.56,-0.82
6.268e-03,-0.66,-0.52
6.270e-03,-0.76,-0.84
6.272e-03,-0.72,-0.68
6.274e-03,-0.78,-0.82
6.276e-03,-0.72,-0.68
6.278e-03,-0.8,-0.82
6.280e-03,-0.72,-0.68
6.282e-03,-0.76,-0.98
6.284e-03,-0.86,-0.7
6.285e-03,-0.94,-0.96
6.287e-03,-0.78,-0.72
6.289e-03,-0.8,-0.84
6.291e-03,-0.74,-0.68
6.293e-03,-0.78,-0.86
6.295e-03,-0.8,-0.68
6.297e-03,-0.68,-0.82
6.299e-03,-0.7,-0.6
6.301e-03,-0.74,-0.84
6.303e-03,-0.78,-0.68
6.305e-03,-0.66,-0.76
6.307e-03,-0.72,-0.6
6.308e-03,-0.62,-0.76
6.310e-03,-0.72,-0.6
6.312e-03,-0.68,-0.74
6.314e-03,-0.68,-0.58
6.316e-03,-0.64,-0.8
6.318e-03,-0.72,-0.6
6.320e-03,-0.78,-0.86
6.322e-03,-0.78,-0.72
6.324e-03,-0.8,-0.84
6.326e-03,-0.68,-0.62
6.328e-03,-0.72,-0.76
6.330e-03,-0.6,-0.6
6.332e-03,-0.72,-0.8
6.333e-03,-0.62,-0.6
6.335e-03,-0.76,-0.86
6.337e-03,-0.78,-0.7
6.339e-03,-0.76,-0.86
6.341e-03,-0.78,-0.7
6.343e-03,-0.72,-0.82
6.345e-03,-0.74,-0.58
6.347e-03,-0.62,-0.76
6.349e-03,-0.62,-0.56
6.351e-03,-0.68,-0.8
6.353e-03,-0.78,-0.62
6.355e-03,-0.64,-0.78
6.356e-03,-0.76,-0.62
6.358e-03,-0.64,-0.78
6.360e-03,-0.7,-0.6
6.362e-03,-0.68,-0.78
6.364e-03,-0.7,-0.6
6.366e-03,-0.66,-0.74
6.368e-03,-0.68,-0.58
6.370e-03,-0.7,-0.92
6.372e-03,-0.72,-0.64
6.374e-03,-0.88,-0.9
6.376e-03,-0.74,-0.74
6.378e-03,-0.8,-0.84
6.380e-03,-0.74,-0.66
6.381e-03,-0.72,-0.88
6.383e-03,-0.8,-0.64
6.385e-03,-0.82,-0.86
6.387e-03,-0.78,-0.7
6.389e-03,-0.76,-0.78
6.391e-03,-0.68,-0.62
6.393e-03,-0.64,-0.74
6.395e-03,-0.62,-0.54
6.397e-03,-0.68,-0.74
6.399e-03,-0.62,-0.54
6.401e-03,-0.58,-0.74
6.403e-03,-0.64,-0.54
6.404e-03,-0.64,-0.7
6.406e-03,-0.68,-0.6
6.408e-03,-0.62,-0.76
6.410e-03,-0.72,-0.58
6.412e-03,-0.66,-0.86
6.414e-03,-0.8,-0.62
6.416e-03,-0.78,-0.86
6.418e-03,-0.72,-0.64
6.420e-03,-0.74,-0.8
6.422e-03,-0.7,-0.64
6.424e-03,-0.72,-0.78
6.426e-03,-0.68,-0.64
6.428e-03,-0.74,-0.82
6.429e-03,-0.74,-0.68
6.431e-03,-0.76,-0.82
6.433e-03,-0.7,-0.7
6.435e-03,-0.76,-0.8
6.437e-03,-0.66,-0.58
6.439e-03,-0.68,-0.94
6.441e-03,-0.8,-0.66
6.443e-03,-0.88,-0.94
6.445e-03,-0.82,-0.72
6.447e-03,-0.78,-0.96
6.449e-03,-0.96,-0.78
6.451e-03,-0.8,-0.86
6.452e-03,-0.74,-0.6
6.454e-03,-0.64,-0.74
6.456e-03,-0.68,-0.58
6.458e-03,-0.6,-0.68
6.460e-03,-0.6,-0.52
6.462e-03,-0.58,-0.72
6.464e-03,-0.68,-0.54
6.466e-03,-0.66,-0.84
6.468e-03,-0.76,-0.6
6.470e-03,-0.8,-0.84
6.472e-03,-0.72,-0.7
6.474e-03,-0.8,-0.84
6.476e-03,-0.66,-0.6
6.477e-03,-0.68,-0.74
6.479e-03,-0.64,-0.6
6.481e-03,-0.7,-0.76
6.483e-03,-0.68,-0.6
6.485e-03,-0.68,-0.72
6.487e-03,-0.62,-0.54
6.489e-03,-0.58,-0.66
6.491e-03,-0.6,-0.52
6.493e-03,-0.56,-0.76
6.495e-03,-0.66,-0.5
6.497e-03,-0.72,-0.82
6.499e-03,-0.78,-0.66
6.500e-03,-0.7,-0.84
6.502e-03,-0.8,-0.68
6.504e-03,-0.72,-0.84
6.506e-03,-0.78,-0.7
6.508e-03,-0.74,-0.82
6.510e-03,-0.74,-0.68
6.512e-03,-0.72,-0.82
6.514e-03,-0.74,-0.66
6.516e-03,-0.7,-0.76
6.518e-03,-0.66,-0.62
6.520e-03,-0.72,-0.78
6.522e-03,-0.7,-0.62
6.524e-03,-0.68,-0.76
6.525e-03,-0.66,-0.62
6.527e-03,-0.72,-0.74
6.529e-03,-0.62,-0.58
6.531e-03,-0.66,-0.8
6.533e-03,-0.68,-0.6
6.535e-03,-0.76,-0.8
6.537e-03,-0.62,-0.56
6.539e-03,-0.64,-0.72
6.541e-03,-0.66,-0.58
6.543e-03,-0.62,-0.78
6.545e-03,-0.72,-0.58
6.547e-03,-0.7,-0.78
6.548e-03,-0.7,-0.58
6.550e-03,-0.6,-0.76
6.552e-03,-0.72,-0.6
6.554e-03,-0.64,-0.76
6.556e-03,-0.74,-0.6
6.558e-03,-0.7,-0.9
6.560e-03,-0.86,-0.66
6.562e-03,-0.78,-0.86
6.564e-03,-0.82,-0.72
6.566e-03,-0.8,-0.86
6.568e-03,-0.76,-0.72
6.570e-03,-0.84,-0.86
6.572e-03,-0.7,-0.68
6.573e-03,-0.74,-0.76
6.575e-03,-0.6,-0.56
6.577e-03,-0.76,-0.78
6.579e-03,-0.68,-0.64
6.581e-03,-0.76,-0.82
6.583e-03,-0.72,-0.66
6.585e-03,-0.78,-0.84
6.587e-03,-0.72,-0.68
6.589e-03,-0.8,-0.86
6.591e-03,-0.82,-0.72
6.593e-03,-0.78,-0.84
6.595e-03,-0.68,-0.62
6.596e-03,-0.68,-0.78
6.598e-03,-0.78,-0.6
6.600e-03,-0.62,-0.72
6.602e-03,-0.66,-0.56
6.604e-03,-0.6,-0.76
6.606e-03,-0.72,-0.6
6.608e-03,-0.7,-0.84
6.610e-03,-0.76,-0.66
6.612e-03,-0.76,-0.9
6.614e-03,-0.84,-0.72
6.616e-03,-0.82,-0.86
6.618e-03,-0.74,-0.7
6.620e-03,-0.84,-0.86
6.621e-03,-0.68,-0.68
6.623e-03,-0.8,-0.88
6.625e-03,-0.8,-0.68
6.627e-03,-0.76,-0.8
6.629e-03,-0.68,-0.64
6.631e-03,-0.7,-0.76
6.633e-03,-0.62,-0.58
6.635e-03,-0.68,-0.78
6.637e-03,-0.68,-0.54
6.639e-03,-0.58,-0.7
6.641e-03,-0.66,-0.52
6.643e-03,-0.58,-0.7
6.645e-03,-0.64,-0.54
6.646e-03,-0.6,-0.76
6.648e-03,-0.68,-0.58
6.650e-03,-0.68,-0.84
6.652e-03,-0.8,-0.64
6.654e-03,-0.68,-0.78
6.656e-03,-0.72,-0.62
6.658e-03,-0.64,-0.78
6.660e-03,-0.72,-0.58
6.662e-03,-0.62,-0.72
6.664e-03,-0.6,-0.54
6.666e-03,-0.68,-0.72
6.668e-03,-0.6,-0.54
6.669e-03,-0.62,-0.72
6.671e-03,-0.6,-0.54
6.673e-03,-0.74,-0.78
6.675e-03,-0.64,-0.6
6.677e-03,-0.72,-0.8
6.679e-03,-0.7,-0.64
6.681e-03,-0.72,-0.76
6.683e-03,-0.62,-0.6
6.685e-03,-0.68,-0.78
6.687e-03,-0.68,-0.64
6.689e-03,-0.68,-0.82
6.691e-03,-0.7,-0.62
6.693e-03,-0.7,-0.8
6.694e-03,-0.72,-0.64
6.696e-03,-0.7,-0.78
6.698e-03,-0.72,-0.6
6.700e-03,-0.6,-0.82
6.702e-03,-0.74,-0.58
6.704e-03,-0.7,-0.84
6.706e-03,-0.78,-0.68
6.708e-03,-0.7,-0.76
6.710e-03,-0.6,-0.52
6.712e-03,-0.58,-0.68
6.714e-03,-0.6,-0.54
6.716e-03,-0.68,-0.8
6.717e-03,-0.7,-0.6
6.719e-03,-0.78,-0.86
6.721e-03,-0.74,-0.7
6.723e-03,-0.88,-0.96
6.725e-03,-0.86,-0.74
6.727e-03,-0.82,-0.84
6.729e-03,-0.68,-0.64
6.731e-03,-0.72,-0.74
6.733e-03,-0.58,-0.52
6.735e-03,-0.66,-0.74
6.737e-03,-0.68,-0.6
6.739e-03,-0.64,-0.86
6.741e-03,-0.74,-0.6
6.742e-03,-0.78,-0.84
6.744e-03,-0.76,-0.66
6.746e-03,-0.76,-0.82
6.748e-03,-0.76,-0.68
6.750e-03,-0.74,-0.84
6.752e-03,-0.76,-0.66
6.754e-03,-0.72,-0.8
6.756e-03,-0.74,-0.68
6.758e-03,-0.74,-0.86
6.760e-03,-0.74,-0.68
6.762e-03,-0.78,-0.86
6.764e-03,-0.78,-0.7
6.765e-03,-0.78,-0.84
6.767e-03,-0.72,-0.68
6.769e-03,-0.78,-0.82
6.771e-03,-0.7,-0.66
6.773e-03,-0.78,-0.82
6.775e-03,-0.64,-0.62
6.777e-03,-0.7,-0.72
6.779e-03,-0.54,-0.5
6.781e-03,-0.62,-0.76
6.783e-03,-0.68,-0.56
6.785e-03,-0.7,-0.82
6.787e-03,-0.7,-0.64
6.789e-03,-0.78,-0.82
6.790e-03,-0.74,-0.62
6.792e-03,-0.66,-0.78
6.794e-03,-0.74,-0.58
6.796e-03,-0.58,-0.78
6.798e-03,-0.74,-0.56
6.800e-03,-0.7,-0.86
6.802e-03,-0.82,-0.68
6.804e-03,-0.72,-0.8
6.806e-03,-0.7,-0.62
6.808e-03,-0.72,-0.78
6.810e-03,-0.7,-0.58
6.812e-03,-0.66,-0.68
6.813e-03,-0.58,-0.52
6.815e-03,-0.6,-0.64
6.817e-03,-0.52,-0.48
6.819e-03,-0.62,-0.7
6.821e-03,-0.56,-0.5
6.823e-03,-0.7,-0.78
6.825e-03,-0.66,-0.62
6.827e-03,-0.76,-0.8
6.829e-03,-0.7,-0.64
6.831e-03,-0.76,-0.78
6.833e-03,-0.68,-0.62
6.835e-03,-0.7,-0.78
6.837e-03,-0.72,-0.62
6.838e-03,-0.66,-0.8
6.840e-03,-0.7,-0.62
6.842e-03,-0.72,-0.82
6.844e-03,-0.78,-0.7
6.846e-03,-0.7,-0.8
6.848e-03,-0.76,-0.64
6.850e-03,-0.7,-0.84
6.852e-03,-0.84,-0.68
6.854e-03,-0.76,-0.92
6.856e-03,-0.86,-0.72
6.858e-03,-0.88,-0.96
6.860e-03,-0.84,-0.72
6.861e-03,-0.78,-0.82
6.863e-03,-0.68,-0.64
6.865e-03,-0.72,-0.8
6.867e-03,-0.7,-0.66
6.869e-03,-0.72,-0.74
6.871e-03,-0.6,-0.58
6.873e-03,-0.72,-0.76
6.875e-03,-0.64,-0.62
6.877e-03,-0.7,-0.74
6.879e-03,-0.62,-0.58
6.881e-03,-0.6,-0.68
6.883e-03,-0.62,-0.56
6.885e-03,-0.64,-0.74
6.886e-03,-0.68,-0.6
6.888e-03,-0.62,-0.78
6.890e-03,-0.68,-0.56
6.892e-03,-0.7,-0.82
6.894e-03,-0.7,-0.64
6.896e-03,-0.74,-0.8
6.898e-03,-0.74,-0.58
6.900e-03,-0.58,-0.68
6.902e-03,-0.6,-0.54
6.904e-03,-0.6,-0.68
6.906e-03,-0.62,-0.54
6.908e-03,-0.6,-0.82
6.909e-03,-0.76,-0.56
6.911e-03,-0.7,-0.76
6.913e-03,-0.6,-0.54
6.915e-03,-0.74,-0.82
6.917e-03,-0.66,-0.64
6.919e-03,-0.76,-0.82
6.921e-03,-0.66,-0.64
6.923e-03,-0.72,-0.76
6.925e-03,-0.66,-0.62
6.927e-03,-0.76,-0.82
6.929e-03,-0.72,-0.66
6.931e-03,-0.8,-0.86
6.933e-03,-0.78,-0.72
6.934e-03,-0.78,-0.88
6.936e-03,-0.76,-0.7
6.938e-03,-0.82,-0.88
6.940e-03,-0.72,-0.6
6.942e-03,-0.6,-0.7
6.944e-03,-0.68,-0.56
6.946e-03,-0.54,-0.76
6.948e-03,-0.66,-0.54
6.950e-03,-0.62,-0.86
6.952e-03,-0.8,-0.62
6.954e-03,-0.78,-0.94
6.956e-03,-0.82,-0.74
6.957e-03,-0.82,-0.86
6.959e-03,-0.74,-0.68
6.961e-03,-0.74,-0.8
6.963e-03,-0.66,-0.6
6.965e-03,-0.72,-0.84
6.967e-03,-0.7,-0.64
6.969e-03,-0.84,-0.88
6.971e-03,-0.76,-0.74
6.973e-03,-0.82,-0.84
6.975e-03,-0.72,-0.68
6.977e-03,-0.78,-0.84
6.979e-03,-0.78,-0.72
6.981e-03,-0.78,-0.86
6.982e-03,-0.76,-0.7
6.984e-03,-0.78,-0.86
6.986e-03,-0.82,-0.72
6.988e-03,-0.76,-0.86
6.990e-03,-0.78,-0.7
6.992e-03,-0.74,-0.82
6.994e-03,-0.74,-0.62
6.996e-03,-0.62,-0.72
6.998e-03,-0.68,-0.58
7.000e-03,-0.62,-0.72
7.002e-03,-0.64,-0.58
7.004e-03,-0.66,-0.78
7.005e-03,-0.72,-0.6
7.007e-03,-0.74,-0.8
7.009e-03,-0.62,-0.6
7.011e-03,-0.74,-0.82
7.013e-03,-0.7,-0.64
7.015e-03,-0.78,-0.86
7.017e-03,-0.72,-0.7
7.019e-03,-0.8,-0.82
7.021e-03,-0.7,-0.68
7.023e-03,-0.76,-0.78
7.025e-03,-0.68,-0.62
7.027e-03,-0.76,-0.84
7.029e-03,-0.78,-0.68
7.030e-03,-0.72,-0.78
7.032e-03,-0.72,-0.66
7.034e-03,-0.7,-0.8
7.036e-03,-0.74,-0.66
7.038e-03,-0.7,-0.8
7.040e-03,-0.74,-0.66
7.042e-03,-0.7,-0.8
7.044e-03,-0.68,-0.6
7.046e-03,-0.7,-0.84
7.048e-03,-0.76,-0.68
7.050e-03,-0.72,-0.84
7.052e-03,-0.7,-0.64
7.053e-03,-0.76,-0.82
7.055e-03,-0.7,-0.64
7.057e-03,-0.7,-0.78
7.059e-03,-0.7,-0.62
7.061e-03,-0.68,-0.82
7.063e-03,-0.66,-0.64
7.065e-03,-0.8,-0.82
7.067e-03,-0.64,-0.6
7.069e-03,-0.72,-0.9
7.071e-03,-0.76,-0.66
7.073e-03,-0.84,-0.9
7.075e-03,-0.82,-0.74
7.077e-03,-0.82,-0.84
7.078e-03,-0.7,-0.64
7.080e-03,-0.68,-0.86
7.082e-03,-0.8,-0.64
7.084e-03,-0.78,-0.84
7.086e-03,-0.8,-0.7
7.088e-03,-0.72,-0.84
7.090e-03,-0.76,-0.66
7.092e-03,-0.74,-0.9
7.094e-03,-0.9,-0.72
7.096e-03,-0.74,-0.82
7.098e-03,-0.8,-0.64
7.100e-03,-0.66,-0.72
7.101e-03,-0.7,-0.6
7.103e-03,-0.64,-0.76
7.105e-03,-0.68,-0.6
7.107e-03,-0.64,-0.76
7.109e-03,-0.66,-0.56
7.111e-03,-0.72,-0.78
7.113e-03,-0.62,-0.6
7.115e-03,-0.76,-0.82
7.117e-03,-0.7,-0.66
7.119e-03,-0.76,-0.8
7.121e-03,-0.68,-0.62
7.123e-03,-0.72,-0.9
7.125e-03,-0.82,-0.66
7.126e-03,-0.76,-0.86
7.128e-03,-0.8,-0.7
7.130e-03,-0.76,-0.86
7.132e-03,-0.8,-0.72
7.134e-03,-0.76,-0.82
7.136e-03,-0.74,-0.68
7.138e-03,-0.72,-0.82
7.140e-03,-0.74,-0.66
7.142e-03,-0.68,-0.86
7.144e-03,-0.82,-0.66
7.146e-03,-0.7,-0.82
7.148e-03,-0.76,-0.62
7.149e-03,-0.66,-0.74
7.151e-03,-0.64,-0.6
7.153e-03,-0.68,-0.86
7.155e-03,-0.7,-0.62
7.157e-03,-0.78,-0.84
7.159e-03,-0.76,-0.68
7.161e-03,-0.8,-0.88
7.163e-03,-0.72,-0.58
7.165e-03,-0.62,-0.68
7.167e-03,-0.6,-0.56
7.169e-03,-0.68,-0.78
7.171e-03,-0.66,-0.58
7.173e-03,-0.64,-0.7
7.174e-03,-0.62,-0.54
7.176e-03,-0.64,-0.7
7.178e-03,-0.64,-0.56
7.180e-03,-0.62,-0.74
7.182e-03,-0.7,-0.58
7.184e-03,-0.66,-0.78
7.186e-03,-0.74,-0.6
7.188e-03,-0.7,-0.78
7.190e-03,-0.74,-0.62
7.192e-03,-0.62,-0.74
7.194e-03,-0.7,-0.58
7.196e-03,-0.66,-0.74
7.197e-03,-0.68,-0.58
7.199e-03,-0.6,-0.76
7.201e-03,-0.68,-0.58
7.203e-03,-0.72,-0.94
7.205e-03,-0.76,-0.68
7.207e-03,-0.9,-0.96
7.209e-03,-0.84,-0.64
7.211e-03,-0.72,-0.76
7.213e-03,-0.62,-0.6
7.215e-03,-0.74,-0.82
7.217e-03,-0.68,-0.64
7.219e-03,-0.78,-0.86
7.221e-03,-0.74,-0.64
7.222e-03,-0.7,-0.76
7.224e-03,-0.62,-0.56
7.226e-03,-0.7,-0.82
7.228e-03,-0.72,-0.64
7.230e-03,-0.72,-0.78
7.232e-03,-0.7,-0.6
7.234e-03,-0.62,-0.76
7.236e-03,-0.74,-0.62
7.238e-03,-0.64,-0.78
7.240e-03,-0.74,-0.62
7.242e-03,-0.7,-0.8
7.244e-03,-0.76,-0.68
7.245e-03,-0.68,-0.78
7.247e-03,-0.72,-0.62
7.249e-03,-0.68,-0.82
7.251e-03,-0.74,-0.64
7.253e-03,-0.78,-0.84
7.255e-03,-0.78,-0.7
7.257e-03,-0.84,-0.86
7.259e-03,-0.76,-0.66
7.261e-03,-0.76,-0.82
7.263e-03,-0.7,-0.66
7.265e-03,-0.72,-0.74
7.267e-03,-0.62,-0.58
7.269e-03,-0.72,-0.82
7.270e-03,-0.7,-0.62
7.272e-03,-0.8,-0.86
7.274e-03,-0.78,-0.72
7.276e-03,-0.82,-0.86
7.278e-03,-0.74,-0.62
7.280e-03,-0.66,-0.76
7.282e-03,-0.68,-0.54
7.284e-03,-0.58,-0.78
7.286e-03,-0.66,-0.54
7.288e-03,-0.68,-0.8
7.290e-03,-0.74,-0.64
7.292e-03,-0.66,-0.84
7.294e-03,-0.74,-0.66
7.295e-03,-0.74,-0.84
7.297e-03,-0.78,-0.68
7.299e-03,-0.72,-0.84
7.301e-03,-0.72,-0.66
7.303e-03,-0.76,-0.84
7.305e-03,-0.78,-0.64
7.307e-03,-0.7,-0.76
7.309e-03,-0.58,-0.54
7.311e-03,-0.68,-0.7
7.313e-03,-0.56,-0.54
7.315e-03,-0.7,-0.72
7.317e-03,-0.54,-0.52
7.318e-03,-0.66,-0.72
7.320e-03,-0.58,-0.5
7.322e-03,-0.58,-0.78
7.324e-03,-0.58,-0.52
7.326e-03,-0.72,-0.88
7.328e-03,-0.76,-0.66
7.330e-03,-0.8,-0.88
7.332e-03,-0.74,-0.6
7.334e-03,-0.62,-0.74
7.336e-03,-0.72,-0.6
7.338e-03,-0.66,-0.8
7.340e-03,-0.78,-0.64
7.342e-03,-0.68,-0.8
7.343e-03,-0.76,-0.64
7.345e-03,-0.68,-0.8
7.347e-03,-0.76,-0.64
7.349e-03,-0.68,-0.9
7.351e-03,-0.84,-0.66
7.353e-03,-0.84,-0.88
7.355e-03,-0.78,-0.7
7.357e-03,-0.8,-0.84
7.359e-03,-0.76,-0.68
7.361e-03,-0.8,-0.84
7.363e-03,-0.74,-0.68
7.365e-03,-0.78,-0.8
7.366e-03,-0.7,-0.66
7.368e-03,-0.74,-0.76
7.370e-03,-0.62,-0.58
7.372e-03,-0.72,-0.8
7.374e-03,-0.7,-0.64
7.376e-03,-0.76,-0.82
7.378e-03,-0.76,-0.7
7.380e-03,-0.74,-0.82
7.382e-03,-0.72,-0.62
7.384e-03,-0.64,-0.76
7.386e-03,-0.7,-0.6
7.388e-03,-0.68,-0.78
7.390e-03,-0.74,-0.66
7.391e-03,-0.68,-0.8
7.393e-03,-0.76,-0.66
7.395e-03,-0.7,-0.92
7.397e-03,-0.82,-0.68
7.399e-03,-0.88,-0.92
7.401e-03,-0.78,-0.7
7.403e-03,-0.74,-0.8
7.405e-03,-0.7,-0.64
7.407e-03,-0.74,-0.84
7.409e-03,-0.74,-0.66
7.411e-03,-0.84,-0.92
7.413e-03,-0.78,-0.74
7.414e-03,-0.86,-0.9
7.416e-03,-0.76,-0.74
7.418e-03,-0.84,-0.96
7.420e-03,-0.86,-0.76
7.422e-03,-0.8,-0.86
7.424e-03,-0.78,-0.68
7.426e-03,-0.72,-0.84
7.428e-03,-0.72,-0.66
7.430e-03,-0.76,-0.9
7.432e-03,-0.84,-0.74
7.434e-03,-0.82,-0.94
7.436e-03,-0.84,-0.72
7.438e-03,-0.76,-0.82
7.439e-03,-0.76,-0.66
7.441e-03,-0.72,-0.8
7.443e-03,-0.72,-0.66
7.445e-03,-0.72,-0.78
7.447e-03,-0.7,-0.58
7.449e-03,-0.62,-0.72
7.451e-03,-0.64,-0.54
7.453e-03,-0.68,-0.76
7.455e-03,-0.68,-0.6
7.457e-03,-0.66,-0.76
7.459e-03,-0.66,-0.56
7.461e-03,-0.64,-0.72
7.462e-03,-0.6,-0.56
7.464e-03,-0.7,-0.72
7.466e-03,-0.58,-0.54
7.468e-03,-0.62,-0.72
7.470e-03,-0.58,-0.52
7.472e-03,-0.68,-0.78
7.474e-03,-0.72,-0.64
7.476e-03,-0.72,-0.84
7.478e-03,-0.74,-0.64
7.480e-03,-0.74,-0.86
7.482e-03,-0.78,-0.68
7.484e-03,-0.78,-0.86
7.486e-03,-0.8,-0.64
7.487e-03,-0.68,-0.8
7.489e-03,-0.76,-0.6
7.491e-03,-0.62,-0.78
7.493e-03,-0.74,-0.62
7.495e-03,-0.72,-0.8
7.497e-03,-0.74,-0.64
7.499e-03,-0.68,-0.92
7.501e-03,-0.76,-0.64
7.503e-03,-0.86,-0.9
7.505e-03,-0.74,-0.68
7.507e-03,-0.76,-0.82
7.509e-03,-0.72,-0.68
7.510e-03,-0.8,-0.82
7.512e-03,-0.68,-0.64
7.514e-03,-0.78,-0.8
7.516e-03,-0.64,-0.58
7.518e-03,-0.68,-0.78
7.520e-03,-0.7,-0.58
7.522e-03,-0.72,-0.76
7.524e-03,-0.72,-0.62
7.526e-03,-0.68,-0.82
7.528e-03,-0.78,-0.64
7.530e-03,-0.76,-0.86
7.532e-03,-0.82,-0.72
7.534e-03,-0.78,-0.9
7.535e-03,-0.8,-0.72
7.537e-03,-0.84,-0.9
7.539e-03,-0.8,-0.64
7.541e-03,-0.7,-0.82
7.543e-03,-0.78,-0.64
7.545e-03,-0.7,-0.88
7.547e-03,-0.7,-0.6
7.549e-03,-0.84,-0.9
7.551e-03,-0.8,-0.72
7.553e-03,-0.8,-0.88
7.555e-03,-0.8,-0.7
7.557e-03,-0.78,-0.82
7.558e-03,-0.64,-0.56
7.560e-03,-0.66,-0.8
7.562e-03,-0.66,-0.58
7.564e-03,-0.74,-0.78
7.566e-03,-0.62,-0.62
7.568e-03,-0.74,-0.8
7.570e-03,-0.72,-0.68
7.572e-03,-0.7,-0.8
7.574e-03,-0.72,-0.64
7.576e-03,-0.74,-0.8
7.578e-03,-0.74,-0.62
7.580e-03,-0.66,-0.82
7.582e-03,-0.78,-0.62
7.583e-03,-0.72,-0.88
7.585e-03,-0.86,-0.7
7.587e-03,-0.74,-0.84
7.589e-03,-0.8,-0.72
7.591e-03,-0.72,-0.88
7.593e-03,-0.84,-0.72
7.595e-03,-0.8,-0.88
7.597e-03,-0.74,-0.7
7.599e-03,-0.82,-0.88
7.601e-03,-0.78,-0.72
7.603e-03,-0.8,-0.84
7.605e-03,-0.72,-0.64
7.606e-03,-0.82,-0.9
7.608e-03,-0.8,-0.74
7.610e-03,-0.84,-0.92
7.612e-03,-0.86,-0.74
7.614e-03,-0.84,-0.86
7.616e-03,-0.76,-0.68
7.618e-03,-0.76,-0.82
7.620e-03,-0.74,-0.68
7.622e-03,-0.72,-0.76
7.624e-03,-0.72,-0.62
7.626e-03,-0.62,-0.82
7.628e-03,-0.7,-0.58
7.630e-03,-0.74,-0.84
7.631e-03,-0.78,-0.64
7.633e-03,-0.68,-0.82
7.635e-03,-0.72,-0.56
7.637e-03,-0.6,-0.74
7.639e-03,-0.72,-0.56
7.641e-03,-0.66,-0.8
7.643e-03,-0.76,-0.56
7.645e-03,-0.62,-0.78
7.647e-03,-0.72,-0.56
7.649e-03,-0.72,-0.74
7.651e-03,-0.62,-0.6
7.653e-03,-0.66,-0.72
7.654e-03,-0.62,-0.6
7.656e-03,-0.68,-0.7
7.658e-03,-0.56,-0.52
7.660e-03,-0.6,-0.72
7.662e-03,-0.62,-0.52
7.664e-03,-0.58,-0.72
7.666e-03,-0.48,-0.46
7.668e-03,-0.66,-0.82
7.670e-03,-0.74,-0.62
7.672e-03,-0.72,-0.78
7.674e-03,-0.7,-0.64
7.676e-03,-0.7,-0.76
7.678e-03,-0.66,-0.58
7.679e-03,-0.62,-0.76
7.681e-03,-0.74,-0.6
7.683e-03,-0.68,-0.74
7.685e-03,-0.66,-0.56
7.687e-03,-0.64,-0.78
7.689e-03,-0.72,-0.62
7.691e-03,-0.7,-0.8
7.693e-03,-0.74,-0.62
7.695e-03,-0.66,-0.78
7.697e-03,-0.62,-0.56
7.699e-03,-0.76,-0.84
7.701e-03,-0.72,-0.66
7.702e-03,-0.72,-0.76
7.704e-03,-0.64,-0.6
7.706e-03,-0.68,-0.78
7.708e-03,-0.62,-0.58
7.710e-03,-0.74,-0.82
7.712e-03,-0.74,-0.66
7.714e-03,-0.78,-0.84
7.716e-03,-0.72,-0.66
7.718e-03,-0.82,-0.84
7.720e-03,-0.76,-0.68
7.722e-03,-0.68,-0.78
7.724e-03,-0.7,-0.6
7.726e-03,-0.7,-0.84
7.727e-03,-0.74,-0.66
7.729e-03,-0.74,-0.88
7.731e-03,-0.86,-0.74
7.733e-03,-0.76,-0.84
7.735e-03,-0.78,-0.7
7.737e-03,-0.7,-0.82
7.739e-03,-0.78,-0.68
7.741e-03,-0.7,-0.78
7.743e-03,-0.66,-0.6
7.745e-03,-0.72,-0.78
7.747e-03,-0.68,-0.62
7.749e-03,-0.72,-0.88
7.750e-03,-0.74,-0.66
7.752e-03,-0.86,-0.88
7.754e-03,-0.76,-0.72
7.756e-03,-0.8,-0.82
7.758e-03,-0.7,-0.66
7.760e-03,-0.76,-0.78
7.762e-03,-0.62,-0.6
7.764e-03,-0.66,-0.7
7.766e-03,-0.56,-0.48
7.768e-03,-0.58,-0.7
7.770e-03,-0.62,-0.54
7.772e-03,-0.62,-0.84
7.774e-03,-0.78,-0.6
7.775e-03,-0.74,-0.8
7.777e-03,-0.7,-0.62
7.779e-03,-0.68,-0.8
7.781e-03,-0.76,-0.66
7.783e-03,-0.68,-0.74
7.785e-03,-0.68,-0.6
7.787e-03,-0.64,-0.82
7.789e-03,-0.68,-0.6
7.791e-03,-0.76,-0.82
7.793e-03,-0.78,-0.64
7.795e-03,-0.7,-0.78
7.797e-03,-0.68,-0.62
7.798e-03,-0.72,-0.74
7.800e-03,-0.64,-0.6
7.802e-03,-0.68,-0.82
7.804e-03,-0.7,-0.64
7.806e-03,-0.78,-0.86
7.808e-03,-0.76,-0.68
7.810e-03,-0.74,-0.82
7.812e-03,-0.72,-0.64
7.814e-03,-0.76,-0.78
7.816e-03,-0.72,-0.6
7.818e-03,-0.62,-0.68
7.820e-03,-0.54,-0.44
7.822e-03,-0.52,-0.7
7.823e-03,-0.52,-0.42
7.825e-03,-0.64,-0.78
7.827e-03,-0.72,-0.6
7.829e-03,-0.7,-0.84
7.831e-03,-0.72,-0.62
7.833e-03,-0.76,-0.86
7.835e-03,-0.76,-0.68
7.837e-03,-0.72,-0.86
7.839e-03,-0.8,-0.7
7.841e-03,-0.76,-0.82
7.843e-03,-0.72,-0.62
7.845e-03,-0.7,-0.76
7.846e-03,-0.68,-0.62
7.848e-03,-0.74,-0.78
7.850e-03,-0.68,-0.62
7.852e-03,-0.7,-0.84
7.854e-03,-0.72,-0.62
7.856e-03,-0.82,-0.86
7.858e-03,-0.74,-0.72
7.860e-03,-0.8,-0.86
7.862e-03,-0.74,-0.66
7.864e-03,-0.72,-0.82
7.866e-03,-0.66,-0.62
7.868e-03,-0.78,-0.82
7.870e-03,-0.76,-0.68
7.871e-03,-0.7,-0.8
7.873e-03,-0.78,-0.62
7.875e-03,-0.62,-0.72
7.877e-03,-0.6,-0.52
7.879e-03,-0.58,-0.84
7.881e-03,-0.78,-0.56
7.883e-03,-0.74,-0.86
7.885e-03,-0.84,-0.68
7.887e-03,-0.76,-0.86
7.889e-03,-0.82,-0.7
7.891e-03,-0.8,-0.9
7.893e-03,-0.86,-0.76
7.895e-03,-0.84,-0.96
7.896e-03,-0.88,-0.78
7.898e-03,-0.88,-0.92
7.900e-03,-0.74,-0.66
7.902e-03,-0.76,-0.82
7.904e-03,-0.7,-0.62
7.906e-03,-0.7,-0.78
7.908e-03,-0.68,-0.62
7.910e-03,-0.72,-0.84
7.912e-03,-0.72,-0.64
7.914e-03,-0.8,-0.82
7.916e-03,-0.74,-0.68
7.918e-03,-0.72,-0.8
7.919e-03,-0.7,-0.58
7.921e-03,-0.64,-0.82
7.923e-03,-0.74,-0.6
7.925e-03,-0.76,-0.82
7.927e-03,-0.8,-0.7
7.929e-03,-0.72,-0.82
7.931e-03,-0.76,-0.62
7.933e-03,-0.64,-0.72
7.935e-03,-0.62,-0.56
7.937e-03,-0.58,-0.68
7.939e-03,-0.62,-0.54
7.941e-03,-0.62,-0.8
7.943e-03,-0.7,-0.58
7.944e-03,-0.78,-0.82
7.946e-03,-0.72,-0.68
7.948e-03,-0.76,-0.82
7.950e-03,-0.7,-0.68
7.952e-03,-0.78,-0.84
7.954e-03,-0.7,-0.64
7.956e-03,-0.76,-0.78
7.958e-03,-0.64,-0.62
7.960e-03,-0.74,-0.8
7.962e-03,-0.68,-0.6
7.964e-03,-0.66,-0.78
7.966e-03,-0.72,-0.6
7.967e-03,-0.68,-0.82
7.969e-03,-0.76,-0.62
7.971e-03,-0.74,-0.9
7.973e-03,-0.88,-0.72
7.975e-03,-0.78,-0.86
7.977e-03,-0.78,-0.64
7.979e-03,-0.68,-0.8
7.981e-03,-0.78,-0.6
7.983e-03,-0.62,-0.7
7.985e-03,-0.66,-0.56
7.987e-03,-0.6,-0.74
7.989e-03,-0.68,-0.56
7.991e-03,-0.64,-0.7
7.992e-03,-0.62,-0.56
7.994e-03,-0.66,-0.7
7.996e-03,-0.54,-0.48
7.998e-03,-0.62,-0.66
8.000e-03,-0.54,-0.52
8.002e-03,-0.68,-0.76
8.004e-03,-0.66,-0.6
8.006e-03,-0.74,-0.78
8.008e-03,-0.66,-0.62
8.010e-03,-0.7,-0.72
8.012e-03,-0.58,-0.54
8.014e-03,-0.64,-0.7
8.015e-03,-0.62,-0.56
8.017e-03,-0.64,-0.82
8.019e-03,-0.74,-0.6
8.021e-03,-0.72,-0.88
8.023e-03,-0.82,-0.7
8.025e-03,-0.78,-0.88
8.027e-03,-0.84,-0.74
8.029e-03,-0.76,-0.82
8.031e-03,-0.72,-0.64
8.033e-03,-0.74,-0.82
8.035e-03,-0.7,-0.62
8.037e-03,-0.64,-0.72
8.039e-03,-0.66,-0.58
8.040e-03,-0.62,-0.76
8.042e-03,-0.66,-0.56
8.044e-03,-0.72,-0.76
8.046e-03,-0.62,-0.62
8.048e-03,-0.76,-0.78
8.050e-03,-0.66,-0.64
8.052e-03,-0.74,-0.8
8.054e-03,-0.7,-0.64
8.056e-03,-0.76,-0.82
8.058e-03,-0.74,-0.66
8.060e-03,-0.78,-0.84
8.062e-03,-0.78,-0.7
8.063e-03,-0.76,-0.9
8.065e-03,-0.82,-0.72
8.067e-03,-0.78,-0.88
8.069e-03,-0.78,-0.72
8.071e-03,-0.82,-0.88
8.073e-03,-0.76,-0.64
8.075e-03,-0.64,-0.72
8.077e-03,-0.66,-0.54
8.079e-03,-0.56,-0.72
8.081e-03,-0.68,-0.54
8.083e-03,-0.64,-0.76
8.085e-03,-0.72,-0.62
8.087e-03,-0.66,-0.78
8.088e-03,-0.72,-0.62
8.090e-03,-0.7,-0.82
8.092e-03,-0.74,-0.62
8.094e-03,-0.66,-0.72
8.096e-03,-0.62,-0.6
8.098e-03,-0.68,-0.8
8.100e-03,-0.7,-0.62
8.102e-03,-0.7,-0.74
8.104e-03,-0.56,-0.54
8.106e-03,-0.64,-0.74
8.108e-03,-0.6,-0.58
8.110e-03,-0.68,-0.86
8.111e-03,-0.7,-0.64
8.113e-03,-0.8,-0.88
8.115e-03,-0.72,-0.66
8.117e-03,-0.76,-0.86
8.119e-03,-0.8,-0.68
8.121e-03,-0.7,-0.78
8.123e-03,-0.72,-0.6
8.125e-03,-0.66,-0.78
8.127e-03,-0.72,-0.62
8.129e-03,-0.66,-0.86
8.131e-03,-0.76,-0.64
8.133e-03,-0.76,-0.84
8.135e-03,-0.74,-0.64
8.136e-03,-0.68,-0.78
8.138e-03,-0.7,-0.64
8.140e-03,-0.7,-0.8
8.142e-03,-0.7,-0.64
8.144e-03,-0.76,-0.8
8.146e-03,-0.66,-0.62
8.148e-03,-0.68,-0.72
8.150e-03,-0.62,-0.58
8.152e-03,-0.68,-0.76
8.154e-03,-0.7,-0.6
8.156e-03,-0.78,-0.8
8.158e-03,-0.7,-0.66
8.159e-03,-0.78,-0.82
8.161e-03,-0.7,-0.6
8.163e-03,-0.66,-0.7
8.165e-03,-0.64,-0.56
8.167e-03,-0.64,-0.72
8.169e-03,-0.66,-0.6
8.171e-03,-0.62,-0.9
8.173e-03,-0.78,-0.6
8.175e-03,-0.8,-0.92
8.177e-03,-0.86,-0.76
8.179e-03,-0.76,-0.94
8.181e-03,-0.88,-0.74
8.183e-03,-0.8,-0.84
8.184e-03,-0.72,-0.66
8.186e-03,-0.72,-0.8
8.188e-03,-0.72,-0.66
8.190e-03,-0.74,-0.82
8.192e-03,-0.74,-0.68
8.194e-03,-0.76,-0.8
8.196e-03,-0.66,-0.64
8.198e-03,-0.8,-0.86
8.200e-03,-0.74,-0.7
8.202e-03,-0.78,-0.82
8.204e-03,-0.7,-0.68
8.206e-03,-0.78,-0.82
8.207e-03,-0.7,-0.6
8.209e-03,-0.64,-0.84
8.211e-03,-0.68,-0.6
8.213e-03,-0.78,-0.86
8.215e-03,-0.84,-0.7
8.217e-03,-0.72,-0.84
8.219e-03,-0.78,-0.66
8.221e-03,-0.7,-0.78
8.223e-03,-0.7,-0.6
8.225e-03,-0.62,-0.82
8.227e-03,-0.78,-0.6
8.229e-03,-0.64,-0.84
8.231e-03,-0.78,-0.62
8.232e-03,-0.76,-0.88
8.234e-03,-0.84,-0.72
8.236e-03,-0.76,-0.82
8.238e-03,-0.72,-0.64
8.240e-03,-0.72,-0.84
8.242e-03,-0.72,-0.62
8.244e-03,-0.82,-0.86
8.246e-03,-0.72,-0.66
8.248e-03,-0.78,-0.88
8.250e-03,-0.76,-0.68
8.252e-03,-0.86,-0.9
8.254e-03,-0.82,-0.74
8.255e-03,-0.78,-0.9
8.257e-03,-0.82,-0.7
8.259e-03,-0.78,-0.8
8.261e-03,-0.7,-0.64
8.263e-03,-0.68,-0.82
8.265e-03,-0.74,-0.64
8.267e-03,-0.74,-0.86
8.269e-03,-0.8,-0.7
8.271e-03,-0.76,-0.86
8.273e-03,-0.82,-0.7
8.275e-03,-0.72,-0.82
8.277e-03,-0.76,-0.58
8.279e-03,-0.58,-0.7
8.280e-03,-0.64,-0.54
8.282e-03,-0.66,-0.8
8.284e-03,-0.7,-0.62
8.286e-03,-0.76,-0.82
8.288e-03,-0.72,-0.62
8.290e-03,-0.7,-0.78
8.292e-03,-0.58,-0.56
8.294e-03,-0.76,-0.8
8.296e-03,-0.72,-0.68
8.298e-03,-0.74,-0.8
8.300e-03,-0.66,-0.62
8.302e-03,-0.78,-0.98
8.303e-03,-0.82,-0.7
8.305e-03,-0.92,-0.96
8.307e-03,-0.82,-0.7
8.309e-03,-0.74,-0.88
8.311e-03,-0.78,-0.68
8.313e-03,-0.78,-0.86
8.315e-03,-0.76,-0.66
8.317e-03,-0.7,-0.9
8.319e-03,-0.84,-0.68
8.321e-03,-0.78,-0.86
8.323e-03,-0.76,-0.6
8.325e-03,-0.6,-0.72
8.327e-03,-0.7,-0.58
8.328e-03,-0.66,-0.84
8.330e-03,-0.8,-0.62
8.332e-03,-0.66,-0.8
8.334e-03,-0.76,-0.62
8.336e-03,-0.7,-0.76
8.338e-03,-0.66,-0.58
8.340e-03,-0.64,-0.76
8.342e-03,-0.66,-0.6
8.344e-03,-0.68,-0.72
8.346e-03,-0.6,-0.58
8.348e-03,-0.66,-0.84
8.350e-03,-0.76,-0.58
8.351e-03,-0.74,-0.78
8.353e-03,-0.64,-0.6
8.355e-03,-0.66,-0.76
8.357e-03,-0.64,-0.6
8.359e-03,-0.7,-0.78
8.361e-03,-0.68,-0.6
8.363e-03,-0.64,-0.82
8.365e-03,-0.76,-0.6
8.367e-03,-0.66,-0.84
8.369e-03,-0.78,-0.64
8.371e-03,-0.78,-0.94
8.373e-03,-0.9,-0.74
8.375e-03,-0.84,-0.94
8.376e-03,-0.8,-0.64
8.378e-03,-0.66,-0.8
8.380e-03,-0.7,-0.58
8.382e-03,-0.62,-0.72
8.384e-03,-0.64,-0.58
8.386e-03,-0.64,-0.82
8.388e-03,-0.64,-0.6
8.390e-03,-0.82,-0.86
8.392e-03,-0.76,-0.68
8.394e-03,-0.82,-0.86
8.396e-03,-0.72,-0.7
8.398e-03,-0.78,-0.8
8.399e-03,-0.64,-0.6
8.401e-03,-0.68,-0.76
8.403e-03,-0.68,-0.6
8.405e-03,-0.72,-0.76
8.407e-03,-0.68,-0.62
8.409e-03,-0.72,-0.78
8.411e-03,-0.7,-0.64
8.413e-03,-0.68,-0.84
8.415e-03,-0.82,-0.66
8.417e-03,-0.72,-0.8
8.419e-03,-0.68,-0.58
8.421e-03,-0.66,-0.88
8.423e-03,-0.82,-0.64
8.424e-03,-0.76,-0.84
8.426e-03,-0.8,-0.64
8.428e-03,-0.66,-0.84
8.430e-03,-0.76,-0.64
8.432e-03,-0.78,-0.92
8.434e-03,-0.82,-0.74
8.436e-03,-0.88,-0.92
8.438e-03,-0.82,-0.76
8.440e-03,-0.82,-0.88
8.442e-03,-0.7,-0.68
8.444e-03,-0.84,-0.86
8.446e-03,-0.72,-0.66
8.447e-03,-0.72,-0.74
8.449e-03,-0.54,-0.54
8.451e-03,-0.64,-0.74
8.453e-03,-0.64,-0.58
8.455e-03,-0.68,-0.8
8.457e-03,-0.72,-0.62
8.459e-03,-0.68,-0.74
8.461e-03,-0.66,-0.58
8.463e-03,-0.62,-0.74
8.465e-03,-0.68,-0.6
8.467e-03,-0.64,-0.72
8.469e-03,-0.66,-0.58
8.471e-03,-0.6,-0.7
8.472e-03,-0.66,-0.58
8.474e-03,-0.58,-0.74
8.476e-03,-0.62,-0.54
8.478e-03,-0.62,-0.7
8.480e-03,-0.6,-0.54
8.482e-03,-0.6,-0.76
8.484e-03,-0.66,-0.56
8.486e-03,-0.7,-0.8
8.488e-03,-0.7,-0.64
8.490e-03,-0.74,-0.82
8.492e-03,-0.66,-0.6
8.494e-03,-0.78,-0.84
8.495e-03,-0.72,-0.62
8.497e-03,-0.72,-0.82
8.499e-03,-0.76,-0.66
8.501e-03,-0.78,-0.8
8.503e-03,-0.66,-0.62
8.505e-03,-0.74,-0.86
8.507e-03,-0.8,-0.68
8.509e-03,-0.72,-0.78
8.511e-03,-0.64,-0.58
8.513e-03,-0.72,-0.82
8.515e-03,-0.74,-0.66
8.517e-03,-0.7,-0.84
8.519e-03,-0.8,-0.68
8.520e-03,-0.74,-0.84
8.522e-03,-0.8,-0.7
8.524e-03,-0.78,-0.9
8.526e-03,-0.86,-0.74
8.528e-03,-0.78,-0.9
8.530e-03,-0.82,-0.68
8.532e-03,-0.72,-0.78
8.534e-03,-0.72,-0.64
8.536e-03,-0.7,-0.78
8.538e-03,-0.68,-0.6
8.540e-03,-0.68,-0.8
8.542e-03,-0.68,-0.6
8.544e-03,-0.78,-0.82
8.545e-03,-0.64,-0.6
8.547e-03,-0.7,-0.74
8.549e-03,-0.62,-0.6
8.551e-03,-0.7,-0.84
8.553e-03,-0.72,-0.64
8.555e-03,-0.76,-0.84
8.557e-03,-0.74,-0.7
8.559e-03,-0.74,-0.86
8.561e-03,-0.76,-0.68
8.563e-03,-0.72,-0.92
8.565e-03,-0.84,-0.72
8.567e-03,-0.84,-0.92
8.568e-03,-0.82,-0.74
8.570e-03,-0.8,-0.98
8.572e-03,-0.94,-0.76
8.574e-03,-0.88,-0.96
8.576e-03,-0.86,-0.7
8.578e-03,-0.76,-0.88
8.580e-03,-0.82,-0.72
8.582e-03,-0.78,-0.82
8.584e-03,-0.72,-0.64
8.586e-03,-0.7,-0.76
8.588e-03,-0.66,-0.6
8.590e-03,-0.7,-0.76
8.592e-03,-0.62,-0.6
8.593e-03,-0.74,-0.78
8.595e-03,-0.62,-0.62
8.597e-03,-0.72,-0.78
8.599e-03,-0.7,-0.62
8.601e-03,-0.68,-0.8
8.603e-03,-0.68,-0.62
8.605e-03,-0.76,-0.8
8.607e-03,-0.62,-0.56
8.609e-03,-0.64,-0.98
8.611e-03,-0.84,-0.6
8.613e-03,-0.92,-0.96
8.615e-03,-0.82,-0.72
8.616e-03,-0.74,-0.82
8.618e-03,-0.74,-0.66
8.620e-03,-0.7,-0.82
8.622e-03,-0.76,-0.6
8.624e-03,-0.6,-0.74
8.626e-03,-0.64,-0.58
8.628e-03,-0.68,-0.88
8.630e-03,-0.76,-0.66
8.632e-03,-0.82,-0.86
8.634e-03,-0.72,-0.64
8.636e-03,-0.72,-0.8
8.638e-03,-0.7,-0.6
8.640e-03,-0.68,-0.78
8.641e-03,-0.64,-0.58
8.643e-03,-0.74,-0.86
8.645e-03,-0.7,-0.64
8.647e-03,-0.82,-0.86
8.649e-03,-0.7,-0.64
8.651e-03,-0.7,-0.74
8.653e-03,-0.62,-0.58
8.655e-03,-0.66,-0.84
8.657e-03,-0.7,-0.62
8.659e-03,-0.76,-0.84
8.661e-03,-0.8,-0.7
8.663e-03,-0.72,-0.82
8.664e-03,-0.78,-0.64
8.666e-03,-0.66,-0.8
8.668e-03,-0.72,-0.64
8.670e-03,-0.72,-0.84
8.672e-03,-0.84,-0.68
8.674e-03,-0.68,-0.76
8.676e-03,-0.66,-0.58
8.678e-03,-0.66,-0.78
8.680e-03,-0.72,-0.6
8.682e-03,-0.66,-0.76
8.684e-03,-0.68,-0.6
8.686e-03,-0.68,-0.8
8.688e-03,-0.74,-0.62
8.689e-03,-0.74,-0.78
8.691e-03,-0.64,-0.62
8.693e-03,-0.76,-0.82
8.695e-03,-0.72,-0.6
8.697e-03,-0.68,-0.76
8.699e-03,-0.56,-0.52
8.701e-03,-0.72,-0.84
8.703e-03,-0.72,-0.66
8.705e-03,-0.8,-0.88
8.707e-03,-0.82,-0.74
8.709e-03,-0.78,-0.9
8.711e-03,-0.84,-0.74
8.712e-03,-0.8,-0.9
8.714e-03,-0.82,-0.64
8.716e-03,-0.64,-0.82
8.718e-03,-0.76,-0.62
8.720e-03,-0.72,-0.8
8.722e-03,-0.62,-0.54
8.724e-03,-0.6,-0.74
8.726e-03,-0.62,-0.54
8.728e-03,-0.68,-0.76
8.730e-03,-0.6,-0.58
8.732e-03,-0.68,-0.82
8.734e-03,-0.66,-0.6
8.736e-03,-0.78,-0.8
8.737e-03,-0.66,-0.64
8.739e-03,-0.74,-0.78
8.741e-03,-0.58,-0.58
8.743e-03,-0.76,-0.94
8.745e-03,-0.76,-0.68
8.747e-03,-0.9,-0.94
8.749e-03,-0.82,-0.76
8.751e-03,-0.84,-0.9
8.753e-03,-0.82,-0.72
8.755e-03,-0.78,-0.84
8.757e-03,-0.74,-0.64
8.759e-03,-0.66,-0.76
8.760e-03,-0.66,-0.56
8.762e-03,-0.62,-0.76
8.764e-03,-0.7,-0.58
8.766e-03,-0.66,-0.76
8.768e-03,-0.72,-0.64
8.770e-03,-0.7,-0.78
8.772e-03,-0.74,-0.64
8.774e-03,-0.72,-0.84
8.776e-03,-0.82,-0.68
8.778e-03,-0.76,-0.82
8.780e-03,-0.72,-0.62
8.782e-03,-0.66,-0.74
8.784e-03,-0.66,-0.6
8.785e-03,-0.64,-0.76
8.787e-03,-0.64,-0.6
8.789e-03,-0.7,-0.76
8.791e-03,-0.6,-0.6
8.793e-03,-0.74,-0.8
8.795e-03,-0.68,-0.66
8.797e-03,-0.74,-0.86
8.799e-03,-0.72,-0.66
8.801e-03,-0.78,-0.84
8.803e-03,-0.74,-0.68
8.805e-03,-0.76,-0.82
8.807e-03,-0.76,-0.7
8.808e-03,-0.76,-0.84
8.810e-03,-0.74,-0.6
8.812e-03,-0.6,-0.72
8.814e-03,-0.62,-0.54
8.816e-03,-0.64,-0.74

