Model,DPO2002B
Firmware Version,1.52

Point Format,Y,
Horizontal Units,S,
Horizontal Scale,0.001,
Sample Interval,1.92012e-06,
Filter Frequency,7e+07,
Record Length,5207,
Gating,0.0% to 100.0%,
Probe Attenuation,10,
Vertical Units,V,
Vertical Offset,0.6,
Vertical Scale,0.5,
Label,,
TIME,CH1,CH1 Peak Detect
-1.180e-03,-0.64,-0.84
-1.178e-03,-0.7,-0.58
-1.176e-03,-0.82,-0.9
-1.174e-03,-0.84,-0.72
-1.172e-03,-0.82,-0.86
-1.170e-03,-0.72,-0.66
-1.168e-03,-0.74,-0.8
-1.167e-03,-0.7,-0.6
-1.165e-03,-0.68,-0.82
-1.163e-03,-0.78,-0.62
-1.161e-03,-0.78,-0.88
-1.159e-03,-0.82,-0.72
-1.157e-03,-0.74,-0.8
-1.155e-03,-0.7,-0.6
-1.153e-03,-0.72,-0.82
-1.151e-03,-0.76,-0.68
-1.149e-03,-0.7,-0.86
-1.147e-03,-0.84,-0.68
-1.145e-03,-0.74,-0.8
-1.144e-03,-0.7,-0.56
-1.142e-03,-0.62,-0.68
-1.140e-03,-0.58,-0.5
-1.138e-03,-0.58,-0.68
-1.136e-03,-0.56,-0.48
-1.134e-03,-0.66,-0.8
-1.132e-03,-0.68,-0.62
-1.130e-03,-0.78,-0.8
-1.128e-03,-0.68,-0.64
-1.126e-03,-0.8,-0.88
-1.124e-03,-0.72,-0.7
-1.122e-03,-0.84,-0.86
-1.120e-03,-0.7,-0.68
-1.119e-03,-0.74,-0.86
-1.117e-03,-0.78,-0.72
-1.115e-03,-0.78,-0.9
-1.113e-03,-0.84,-0.72
-1.111e-03,-0.74,-0.82
-1.109e-03,-0.72,-0.62
-1.107e-03,-0.68,-0.84
-1.105e-03,-0.72,-0.64
-1.103e-03,-0.76,-0.84
-1.101e-03,-0.72,-0.64
-1.099e-03,-0.68,-0.78
-1.097e-03,-0.72,-0.66
-1.096e-03,-0.7,-0.76
-1.094e-03,-0.68,-0.56
-1.092e-03,-0.62,-0.76
-1.090e-03,-0.66,-0.58
-1.088e-03,-0.64,-0.8
-1.086e-03,-0.64,-0.56
-1.084e-03,-0.8,-0.82
-1.082e-03,-0.68,-0.64
-1.080e-03,-0.7,-0.74
-1.078e-03,-0.56,-0.52
-1.076e-03,-0.64,-0.82
-1.074e-03,-0.6,-0.56
-1.072e-03,-0.82,-0.9
-1.071e-03,-0.82,-0.72
-1.069e-03,-0.82,-0.86
-1.067e-03,-0.72,-0.68
-1.065e-03,-0.76,-0.82
-1.063e-03,-0.78,-0.7
-1.061e-03,-0.76,-0.82
-1.059e-03,-0.78,-0.68
-1.057e-03,-0.7,-0.8
-1.055e-03,-0.78,-0.56
-1.053e-03,-0.54,-0.66
-1.051e-03,-0.58,-0.5
-1.049e-03,-0.58,-0.72
-1.048e-03,-0.68,-0.54
-1.046e-03,-0.6,-0.68
-1.044e-03,-0.62,-0.52
-1.042e-03,-0.56,-0.72
-1.040e-03,-0.64,-0.52
-1.038e-03,-0.68,-0.76
-1.036e-03,-0.68,-0.6
-1.034e-03,-0.68,-0.74
-1.032e-03,-0.66,-0.6
-1.030e-03,-0.7,-0.74
-1.028e-03,-0.66,-0.58
-1.026e-03,-0.66,-0.7
-1.024e-03,-0.58,-0.56
-1.023e-03,-0.66,-0.72
-1.021e-03,-0.6,-0.54
-1.019e-03,-0.58,-0.7
-1.017e-03,-0.62,-0.54
-1.015e-03,-0.64,-0.72
-1.013e-03,-0.62,-0.56
-1.011e-03,-0.64,-0.8
-1.009e-03,-0.74,-0.64
-1.007e-03,-0.7,-0.78
-1.005e-03,-0.68,-0.56
-1.003e-03,-0.6,-0.74
-1.001e-03,-0.7,-0.56
-9.995e-04,-0.6,-0.76
-9.976e-04,-0.68,-0.56
-9.957e-04,-0.7,-0.76
-9.937e-04,-0.68,-0.62
-9.918e-04,-0.7,-0.78
-9.899e-04,-0.64,-0.6
-9.880e-04,-0.7,-0.74
-9.861e-04,-0.6,-0.58
-9.841e-04,-0.68,-0.72
-9.822e-04,-0.54,-0.5
-9.803e-04,-0.6,-0.66
-9.784e-04,-0.56,-0.52
-9.765e-04,-0.66,-0.78
-9.745e-04,-0.7,-0.58
-9.726e-04,-0.68,-0.76
-9.707e-04,-0.66,-0.6
-9.688e-04,-0.7,-0.78
-9.669e-04,-0.64,-0.6
-9.649e-04,-0.72,-0.84
-9.630e-04,-0.78,-0.66
-9.611e-04,-0.7,-0.8
-9.592e-04,-0.72,-0.66
-9.573e-04,-0.72,-0.78
-9.553e-04,-0.76,-0.62
-9.534e-04,-0.66,-0.76
-9.515e-04,-0.68,-0.6
-9.496e-04,-0.66,-0.8
-9.477e-04,-0.68,-0.62
-9.457e-04,-0.72,-0.78
-9.438e-04,-0.62,-0.56
-9.419e-04,-0.62,-0.7
-9.400e-04,-0.64,-0.56
-9.381e-04,-0.68,-0.82
-9.361e-04,-0.7,-0.62
-9.342e-04,-0.8,-0.82
-9.323e-04,-0.72,-0.68
-9.304e-04,-0.8,-0.86
-9.285e-04,-0.74,-0.68
-9.265e-04,-0.74,-0.8
-9.246e-04,-0.7,-0.68
-9.227e-04,-0.74,-0.78
-9.208e-04,-0.66,-0.58
-9.189e-04,-0.6,-0.82
-9.169e-04,-0.66,-0.54
-9.150e-04,-0.74,-0.82
-9.131e-04,-0.8,-0.66
-9.112e-04,-0.68,-0.76
-9.093e-04,-0.72,-0.58
-9.073e-04,-0.56,-0.72
-9.054e-04,-0.66,-0.52
-9.035e-04,-0.66,-0.86
-9.016e-04,-0.82,-0.62
-8.997e-04,-0.74,-0.82
-8.977e-04,-0.74,-0.66
-8.958e-04,-0.72,-0.78
-8.939e-04,-0.7,-0.62
-8.920e-04,-0.72,-0.78
-8.901e-04,-0.7,-0.66
-8.881e-04,-0.76,-0.78
-8.862e-04,-0.68,-0.64
-8.843e-04,-0.74,-0.86
-8.824e-04,-0.74,-0.68
-8.805e-04,-0.76,-0.8
-8.785e-04,-0.64,-0.62
-8.766e-04,-0.7,-0.72
-8.747e-04,-0.6,-0.54
-8.728e-04,-0.66,-0.72
-8.709e-04,-0.64,-0.58
-8.689e-04,-0.64,-0.74
-8.670e-04,-0.68,-0.6
-8.651e-04,-0.64,-0.7
-8.632e-04,-0.64,-0.56
-8.613e-04,-0.64,-0.76
-8.593e-04,-0.72,-0.6
-8.574e-04,-0.62,-0.74
-8.555e-04,-0.7,-0.58
-8.536e-04,-0.64,-0.78
-8.517e-04,-0.7,-0.62
-8.497e-04,-0.7,-0.8
-8.478e-04,-0.7,-0.64
-8.459e-04,-0.68,-0.76
-8.440e-04,-0.66,-0.6
-8.421e-04,-0.68,-0.74
-8.401e-04,-0.64,-0.6
-8.382e-04,-0.7,-0.78
-8.363e-04,-0.7,-0.62
-8.344e-04,-0.7,-0.76
-8.325e-04,-0.62,-0.58
-8.305e-04,-0.74,-0.84
-8.286e-04,-0.72,-0.68
-8.267e-04,-0.82,-0.86
-8.248e-04,-0.74,-0.7
-8.229e-04,-0.82,-0.88
-8.209e-04,-0.78,-0.68
-8.190e-04,-0.72,-0.84
-8.171e-04,-0.78,-0.68
-8.152e-04,-0.76,-0.86
-8.133e-04,-0.74,-0.66
-8.113e-04,-0.66,-0.86
-8.094e-04,-0.8,-0.64
-8.075e-04,-0.78,-0.88
-8.056e-04,-0.84,-0.68
-8.037e-04,-0.72,-0.8
-8.017e-04,-0.78,-0.66
-7.998e-04,-0.68,-0.78
-7.979e-04,-0.7,-0.6
-7.960e-04,-0.72,-0.78
-7.941e-04,-0.66,-0.6
-7.921e-04,-0.7,-0.76
-7.902e-04,-0.7,-0.62
-7.883e-04,-0.72,-0.76
-7.864e-04,-0.62,-0.6
-7.845e-04,-0.76,-0.78
-7.825e-04,-0.64,-0.64
-7.806e-04,-0.7,-0.78
-7.787e-04,-0.62,-0.6
-7.768e-04,-0.76,-0.8
-7.749e-04,-0.72,-0.66
-7.729e-04,-0.72,-0.84
-7.710e-04,-0.76,-0.64
-7.691e-04,-0.72,-0.76
-7.672e-04,-0.66,-0.58
-7.653e-04,-0.58,-0.68
-7.633e-04,-0.62,-0.52
-7.614e-04,-0.62,-0.82
-7.595e-04,-0.78,-0.6
-7.576e-04,-0.74,-0.84
-7.557e-04,-0.8,-0.7
-7.537e-04,-0.72,-0.82
-7.518e-04,-0.74,-0.62
-7.499e-04,-0.66,-0.76
-7.480e-04,-0.66,-0.6
-7.461e-04,-0.7,-0.84
-7.441e-04,-0.76,-0.66
-7.422e-04,-0.78,-0.94
-7.403e-04,-0.7,-0.68
-7.384e-04,-0.94,-0.94
-7.365e-04,-0.76,-0.68
-7.345e-04,-0.76,-0.78
-7.326e-04,-0.62,-0.58
-7.307e-04,-0.66,-0.76
-7.288e-04,-0.68,-0.58
-7.269e-04,-0.72,-0.74
-7.249e-04,-0.64,-0.54
-7.230e-04,-0.6,-0.74
-7.211e-04,-0.66,-0.54
-7.192e-04,-0.66,-0.84
-7.173e-04,-0.76,-0.64
-7.153e-04,-0.76,-0.86
-7.134e-04,-0.78,-0.7
-7.115e-04,-0.7,-0.78
-7.096e-04,-0.72,-0.62
-7.076e-04,-0.66,-0.8
-7.057e-04,-0.76,-0.62
-7.038e-04,-0.72,-0.84
-7.019e-04,-0.8,-0.7
-7.000e-04,-0.72,-0.8
-6.980e-04,-0.7,-0.58
-6.961e-04,-0.62,-0.68
-6.942e-04,-0.6,-0.52
-6.923e-04,-0.6,-0.76
-6.904e-04,-0.64,-0.58
-6.884e-04,-0.74,-0.84
-6.865e-04,-0.76,-0.7
-6.846e-04,-0.82,-0.9
-6.827e-04,-0.8,-0.72
-6.808e-04,-0.84,-0.88
-6.788e-04,-0.72,-0.66
-6.769e-04,-0.72,-0.76
-6.750e-04,-0.66,-0.52
-6.731e-04,-0.54,-0.68
-6.712e-04,-0.6,-0.52
-6.692e-04,-0.62,-0.76
-6.673e-04,-0.7,-0.58
-6.654e-04,-0.64,-0.76
-6.635e-04,-0.7,-0.54
-6.616e-04,-0.56,-0.7
-6.596e-04,-0.62,-0.52
-6.577e-04,-0.6,-0.68
-6.558e-04,-0.6,-0.5
-6.539e-04,-0.6,-0.68
-6.520e-04,-0.62,-0.52
-6.500e-04,-0.6,-0.7
-6.481e-04,-0.6,-0.54
-6.462e-04,-0.64,-0.7
-6.443e-04,-0.64,-0.54
-6.424e-04,-0.66,-0.72
-6.404e-04,-0.6,-0.56
-6.385e-04,-0.7,-0.78
-6.366e-04,-0.68,-0.64
-6.347e-04,-0.7,-0.82
-6.328e-04,-0.76,-0.62
-6.308e-04,-0.82,-0.88
-6.289e-04,-0.8,-0.68
-6.270e-04,-0.78,-0.86
-6.251e-04,-0.78,-0.7
-6.232e-04,-0.78,-0.82
-6.212e-04,-0.78,-0.68
-6.193e-04,-0.7,-0.76
-6.174e-04,-0.68,-0.6
-6.155e-04,-0.68,-0.8
-6.136e-04,-0.72,-0.64
-6.116e-04,-0.7,-0.82
-6.097e-04,-0.78,-0.66
-6.078e-04,-0.7,-0.78
-6.059e-04,-0.7,-0.6
-6.040e-04,-0.66,-0.78
-6.020e-04,-0.72,-0.58
-6.001e-04,-0.62,-0.74
-5.982e-04,-0.66,-0.58
-5.963e-04,-0.7,-0.78
-5.944e-04,-0.72,-0.62
-5.924e-04,-0.72,-0.76
-5.905e-04,-0.66,-0.58
-5.886e-04,-0.68,-0.86
-5.867e-04,-0.76,-0.6
-5.848e-04,-0.82,-0.86
-5.828e-04,-0.64,-0.62
-5.809e-04,-0.7,-0.74
-5.790e-04,-0.58,-0.52
-5.771e-04,-0.6,-0.78
-5.752e-04,-0.7,-0.56
-5.732e-04,-0.72,-0.82
-5.713e-04,-0.72,-0.64
-5.694e-04,-0.74,-0.86
-5.675e-04,-0.82,-0.66
-5.656e-04,-0.64,-0.72
-5.636e-04,-0.64,-0.56
-5.617e-04,-0.6,-0.78
-5.598e-04,-0.74,-0.58
-5.579e-04,-0.66,-0.78
-5.560e-04,-0.74,-0.62
-5.540e-04,-0.7,-0.84
-5.521e-04,-0.68,-0.6
-5.502e-04,-0.76,-0.82
-5.483e-04,-0.6,-0.5
-5.464e-04,-0.58,-0.62
-5.444e-04,-0.5,-0.46
-5.425e-04,-0.58,-0.72
-5.406e-04,-0.54,-0.5
-5.387e-04,-0.66,-0.7
-5.368e-04,-0.54,-0.5
-5.348e-04,-0.62,-0.66
-5.329e-04,-0.6,-0.52
-5.310e-04,-0.62,-0.74
-5.291e-04,-0.6,-0.52
-5.272e-04,-0.72,-0.78
-5.252e-04,-0.66,-0.56
-5.233e-04,-0.62,-0.74
-5.214e-04,-0.68,-0.58
-5.195e-04,-0.66,-0.7
-5.176e-04,-0.66,-0.54
-5.156e-04,-0.54,-0.66
-5.137e-04,-0.58,-0.46
-5.118e-04,-0.58,-0.76
-5.099e-04,-0.74,-0.58
-5.080e-04,-0.68,-0.8
-5.060e-04,-0.72,-0.64
-5.041e-04,-0.7,-0.76
-5.022e-04,-0.64,-0.58
-5.003e-04,-0.7,-0.76
-4.984e-04,-0.66,-0.58
-4.964e-04,-0.66,-0.78
-4.945e-04,-0.64,-0.48
-4.926e-04,-0.56,-0.62
-4.907e-04,-0.54,-0.46
-4.888e-04,-0.56,-0.64
-4.868e-04,-0.52,-0.48
-4.849e-04,-0.64,-0.72
-4.830e-04,-0.62,-0.56
-4.811e-04,-0.66,-0.76
-4.792e-04,-0.56,-0.52
-4.772e-04,-0.7,-0.88
-4.753e-04,-0.74,-0.66
-4.734e-04,-0.78,-0.86
-4.715e-04,-0.82,-0.72
-4.696e-04,-0.72,-0.78
-4.676e-04,-0.72,-0.62
-4.657e-04,-0.66,-0.8
-4.638e-04,-0.7,-0.62
-4.619e-04,-0.72,-0.8
-4.600e-04,-0.74,-0.66
-4.580e-04,-0.7,-0.78
-4.561e-04,-0.76,-0.56
-4.542e-04,-0.6,-0.72
-4.523e-04,-0.64,-0.54
-4.504e-04,-0.68,-0.74
-4.484e-04,-0.62,-0.6
-4.465e-04,-0.66,-0.76
-4.446e-04,-0.64,-0.6
-4.427e-04,-0.72,-0.74
-4.408e-04,-0.64,-0.62
-4.388e-04,-0.7,-0.82
-4.369e-04,-0.72,-0.64
-4.350e-04,-0.78,-0.86
-4.331e-04,-0.78,-0.7
-4.312e-04,-0.78,-0.84
-4.292e-04,-0.74,-0.7
-4.273e-04,-0.76,-0.82
-4.254e-04,-0.74,-0.66
-4.235e-04,-0.68,-0.76
-4.216e-04,-0.64,-0.58
-4.196e-04,-0.64,-0.78
-4.177e-04,-0.72,-0.6
-4.158e-04,-0.66,-0.8
-4.139e-04,-0.76,-0.64
-4.120e-04,-0.7,-0.78
-4.100e-04,-0.72,-0.62
-4.081e-04,-0.66,-0.82
-4.062e-04,-0.76,-0.62
-4.043e-04,-0.68,-0.76
-4.024e-04,-0.68,-0.58
-4.004e-04,-0.64,-0.7
-3.985e-04,-0.6,-0.52
-3.966e-04,-0.64,-0.78
-3.947e-04,-0.68,-0.58
-3.927e-04,-0.74,-0.78
-3.908e-04,-0.66,-0.58
-3.889e-04,-0.68,-0.84
-3.870e-04,-0.72,-0.6
-3.851e-04,-0.78,-0.8
-3.831e-04,-0.64,-0.62
-3.812e-04,-0.72,-0.76
-3.793e-04,-0.62,-0.56
-3.774e-04,-0.64,-0.74
-3.755e-04,-0.62,-0.56
-3.735e-04,-0.66,-0.78
-3.716e-04,-0.72,-0.62
-3.697e-04,-0.7,-0.84
-3.678e-04,-0.8,-0.66
-3.659e-04,-0.7,-0.8
-3.639e-04,-0.72,-0.64
-3.620e-04,-0.74,-0.82
-3.601e-04,-0.8,-0.62
-3.582e-04,-0.68,-0.78
-3.563e-04,-0.76,-0.62
-3.543e-04,-0.66,-0.72
-3.524e-04,-0.66,-0.58
-3.505e-04,-0.66,-0.8
-3.486e-04,-0.66,-0.6
-3.467e-04,-0.78,-0.86
-3.447e-04,-0.78,-0.68
-3.428e-04,-0.78,-0.8
-3.409e-04,-0.66,-0.64
-3.390e-04,-0.76,-0.82
-3.371e-04,-0.62,-0.58
-3.351e-04,-0.68,-0.78
-3.332e-04,-0.68,-0.62
-3.313e-04,-0.7,-0.82
-3.294e-04,-0.74,-0.66
-3.275e-04,-0.7,-0.76
-3.255e-04,-0.64,-0.54
-3.236e-04,-0.56,-0.72
-3.217e-04,-0.62,-0.54
-3.198e-04,-0.6,-0.72
-3.179e-04,-0.64,-0.54
-3.159e-04,-0.66,-0.78
-3.140e-04,-0.74,-0.64
-3.121e-04,-0.64,-0.84
-3.102e-04,-0.74,-0.64
-3.083e-04,-0.76,-0.82
-3.063e-04,-0.72,-0.64
-3.044e-04,-0.7,-0.76
-3.025e-04,-0.68,-0.62
-3.006e-04,-0.68,-0.78
-2.987e-04,-0.64,-0.62
-2.967e-04,-0.72,-0.76
-2.948e-04,-0.6,-0.58
-2.929e-04,-0.68,-0.82
-2.910e-04,-0.72,-0.62
-2.891e-04,-0.74,-0.78
-2.871e-04,-0.62,-0.58
-2.852e-04,-0.66,-0.7
-2.833e-04,-0.58,-0.52
-2.814e-04,-0.68,-0.76
-2.795e-04,-0.68,-0.58
-2.775e-04,-0.7,-0.8
-2.756e-04,-0.76,-0.64
-2.737e-04,-0.68,-0.78
-2.718e-04,-0.74,-0.6
-2.699e-04,-0.62,-0.78
-2.679e-04,-0.74,-0.62
-2.660e-04,-0.7,-0.8
-2.641e-04,-0.76,-0.66
-2.622e-04,-0.74,-0.8
-2.603e-04,-0.74,-0.62
-2.583e-04,-0.68,-0.88
-2.564e-04,-0.78,-0.64
-2.545e-04,-0.8,-0.9
-2.526e-04,-0.82,-0.7
-2.507e-04,-0.76,-0.8
-2.487e-04,-0.72,-0.64
-2.468e-04,-0.7,-0.78
-2.449e-04,-0.66,-0.62
-2.430e-04,-0.76,-0.8
-2.411e-04,-0.68,-0.66
-2.391e-04,-0.78,-0.82
-2.372e-04,-0.72,-0.64
-2.353e-04,-0.72,-0.82
-2.334e-04,-0.74,-0.66
-2.315e-04,-0.68,-0.9
-2.295e-04,-0.8,-0.62
-2.276e-04,-0.86,-0.9
-2.257e-04,-0.84,-0.7
-2.238e-04,-0.7,-0.8
-2.219e-04,-0.7,-0.62
-2.199e-04,-0.68,-0.8
-2.180e-04,-0.78,-0.64
-2.161e-04,-0.72,-0.8
-2.142e-04,-0.72,-0.62
-2.123e-04,-0.62,-0.78
-2.103e-04,-0.7,-0.58
-2.084e-04,-0.72,-0.78
-2.065e-04,-0.74,-0.62
-2.046e-04,-0.68,-0.78
-2.027e-04,-0.66,-0.62
-2.007e-04,-0.78,-0.82
-1.988e-04,-0.72,-0.6
-1.969e-04,-0.68,-0.7
-1.950e-04,-0.62,-0.58
-1.931e-04,-0.66,-0.82
-1.911e-04,-0.72,-0.6
-1.892e-04,-0.76,-0.78
-1.873e-04,-0.66,-0.62
-1.854e-04,-0.72,-0.76
-1.835e-04,-0.64,-0.58
-1.815e-04,-0.64,-0.7
-1.796e-04,-0.62,-0.56
-1.777e-04,-0.6,-0.66
-1.758e-04,-0.58,-0.48
-1.739e-04,-0.54,-0.64
-1.719e-04,-0.54,-0.46
-1.700e-04,-0.56,-0.72
-1.681e-04,-0.62,-0.52
-1.662e-04,-0.62,-0.78
-1.643e-04,-0.72,-0.6
-1.623e-04,-0.72,-0.8
-1.604e-04,-0.76,-0.6
-1.585e-04,-0.62,-0.74
-1.566e-04,-0.66,-0.5
-1.547e-04,-0.56,-0.72
-1.527e-04,-0.62,-0.52
-1.508e-04,-0.66,-0.72
-1.489e-04,-0.6,-0.56
-1.470e-04,-0.64,-0.76
-1.451e-04,-0.6,-0.58
-1.431e-04,-0.78,-0.78
-1.412e-04,-0.66,-0.64
-1.393e-04,-0.72,-0.76
-1.374e-04,-0.62,-0.58
-1.355e-04,-0.68,-0.78
-1.335e-04,-0.7,-0.62
-1.316e-04,-0.7,-0.78
-1.297e-04,-0.72,-0.62
-1.278e-04,-0.68,-0.78
-1.259e-04,-0.74,-0.62
-1.239e-04,-0.68,-0.76
-1.220e-04,-0.62,-0.52
-1.201e-04,-0.62,-0.82
-1.182e-04,-0.78,-0.6
-1.163e-04,-0.7,-0.84
-1.143e-04,-0.8,-0.64
-1.124e-04,-0.72,-0.82
-1.105e-04,-0.8,-0.68
-1.086e-04,-0.76,-0.82
-1.067e-04,-0.72,-0.62
-1.047e-04,-0.66,-0.7
-1.028e-04,-0.58,-0.54
-1.009e-04,-0.64,-0.7
-9.897e-05,-0.6,-0.58
-9.705e-05,-0.68,-0.8
-9.513e-05,-0.7,-0.64
-9.321e-05,-0.8,-0.86
-9.129e-05,-0.78,-0.7
-8.937e-05,-0.86,-0.88
-8.745e-05,-0.74,-0.68
-8.553e-05,-0.78,-0.82
-8.361e-05,-0.66,-0.56
-8.169e-05,-0.64,-0.7
-7.977e-05,-0.6,-0.52
-7.785e-05,-0.58,-0.74
-7.593e-05,-0.68,-0.54
-7.401e-05,-0.62,-0.7
-7.209e-05,-0.64,-0.52
-7.017e-05,-0.56,-0.72
-6.825e-05,-0.6,-0.52
-6.633e-05,-0.64,-0.84
-6.441e-05,-0.7,-0.62
-6.249e-05,-0.74,-0.92
-6.057e-05,-0.86,-0.72
-5.865e-05,-0.82,-0.88
-5.673e-05,-0.8,-0.72
-5.481e-05,-0.76,-0.8
-5.289e-05,-0.68,-0.64
-5.097e-05,-0.74,-0.84
-4.905e-05,-0.7,-0.66
-4.713e-05,-0.82,-0.84
-4.521e-05,-0.66,-0.6
-4.329e-05,-0.7,-0.76
-4.137e-05,-0.66,-0.6
-3.945e-05,-0.66,-0.72
-3.753e-05,-0.62,-0.56
-3.561e-05,-0.64,-0.74
-3.369e-05,-0.68,-0.58
-3.177e-05,-0.68,-0.78
-2.985e-05,-0.72,-0.62
-2.793e-05,-0.72,-0.78
-2.601e-05,-0.76,-0.64
-2.409e-05,-0.64,-0.76
-2.217e-05,-0.68,-0.56
-2.025e-05,-0.66,-0.76
-1.833e-05,-0.66,-0.58
-1.641e-05,-0.6,-0.7
-1.449e-05,-0.64,-0.54
-1.257e-05,-0.66,-0.76
-1.065e-05,-0.72,-0.62
-8.725e-06,-0.66,-0.72
-6.805e-06,-0.62,-0.56
-4.885e-06,-0.66,-0.78
-2.965e-06,-0.68,-0.62
-1.045e-06,-0.76,-0.86
8.756e-07,-0.76,-0.7
2.796e-06,-0.84,-0.98
4.716e-06,-0.66,-0.62
6.636e-06,-1.02,-2.38
8.556e-06,-1.88,-0.96
1.048e-05,-2.38,-2.38
1.240e-05,-2.38,-2.38
1.432e-05,-2.38,-2.38
1.624e-05,-2.38,-2.38
1.816e-05,-2.38,-2.38
2.008e-05,-2.38,-2.38
2.200e-05,-2.38,-2.38
2.392e-05,-2.38,-2.38
2.584e-05,-2.38,-2.38
2.776e-05,-2.38,-2.38
2.968e-05,-2.38,-2.38
3.160e-05,-2.38,-2.38
3.352e-05,-2.38,-2.38
3.544e-05,-2.38,-2.38
3.736e-05,-2.38,-2.38
3.928e-05,-2.38,-2.38
4.120e-05,-2.38,-2.38
4.312e-05,-2.38,-2.38
4.504e-05,-2.38,-2.38
4.696e-05,-2.38,-2.38
4.888e-05,-2.38,-2.38
5.080e-05,-2.38,-2.38
5.272e-05,-2.38,-2.38
5.464e-05,-2.38,-2.38
5.656e-05,-2.38,-2.38
5.848e-05,-2.38,-1.98
6.040e-05,-1.94,-2
6.232e-05,-1.24,-0.86
6.424e-05,-0.9,-0.92
6.616e-05,-0.7,-0.5
6.808e-05,-0.5,-0.74
7.000e-05,-0.66,-0.46
7.192e-05,-0.64,-0.7
7.384e-05,-0.62,-0.52
7.576e-05,-0.56,-0.68
7.768e-05,-0.66,-0.54
7.960e-05,-0.58,-0.68
8.152e-05,-0.66,-0.54
8.344e-05,-0.58,-0.66
8.536e-05,-0.6,-0.48
8.728e-05,-0.5,-0.56
8.920e-05,-0.46,-0.38
9.112e-05,-0.44,-0.56
9.304e-05,-0.48,-0.4
9.496e-05,-0.54,-0.7
9.688e-05,-0.6,-0.48
9.880e-05,-0.64,-0.68
1.007e-04,-0.58,-0.5
1.026e-04,-0.6,-0.74
1.046e-04,-0.54,-0.5
1.065e-04,-0.7,-0.76
1.084e-04,-0.62,-0.58
1.103e-04,-0.62,-0.68
1.122e-04,-0.6,-0.56
1.142e-04,-0.6,-0.74
1.161e-04,-0.6,-0.56
1.180e-04,-0.66,-0.72
1.199e-04,-0.64,-0.54
1.218e-04,-0.56,-0.68
1.238e-04,-0.66,-0.52
1.257e-04,-0.6,-0.68
1.276e-04,-0.6,-0.52
1.295e-04,-0.54,-0.76
1.314e-04,-0.68,-0.54
1.334e-04,-0.68,-0.8
1.353e-04,-0.72,-0.64
1.372e-04,-0.72,-0.86
1.391e-04,-0.76,-0.68
1.410e-04,-0.8,-0.84
1.430e-04,-0.72,-0.66
1.449e-04,-0.72,-0.74
1.468e-04,-0.58,-0.52
1.487e-04,-0.62,-0.64
1.506e-04,-0.52,-0.5
1.526e-04,-0.6,-0.72
1.545e-04,-0.58,-0.52
1.564e-04,-0.7,-0.78
1.583e-04,-0.7,-0.62
1.602e-04,-0.74,-0.78
1.622e-04,-0.68,-0.62
1.641e-04,-0.7,-0.74
1.660e-04,-0.66,-0.54
1.679e-04,-0.6,-0.68
1.698e-04,-0.64,-0.52
1.718e-04,-0.54,-0.62
1.737e-04,-0.54,-0.44
1.756e-04,-0.54,-0.72
1.775e-04,-0.62,-0.5
1.794e-04,-0.66,-0.76
1.814e-04,-0.66,-0.54
1.833e-04,-0.58,-0.66
1.852e-04,-0.62,-0.5
1.871e-04,-0.56,-0.74
1.890e-04,-0.64,-0.52
1.910e-04,-0.66,-0.72
1.929e-04,-0.64,-0.54
1.948e-04,-0.6,-0.68
1.967e-04,-0.6,-0.54
1.986e-04,-0.62,-0.72
2.006e-04,-0.6,-0.52
2.025e-04,-0.68,-0.72
2.044e-04,-0.54,-0.54
2.063e-04,-0.64,-0.7
2.082e-04,-0.6,-0.58
2.102e-04,-0.58,-0.68
2.121e-04,-0.56,-0.52
2.140e-04,-0.56,-0.72
2.159e-04,-0.64,-0.52
2.178e-04,-0.64,-0.74
2.198e-04,-0.7,-0.6
2.217e-04,-0.66,-0.76
2.236e-04,-0.7,-0.56
2.255e-04,-0.62,-0.76
2.275e-04,-0.7,-0.58
2.294e-04,-0.68,-0.78
2.313e-04,-0.72,-0.64
2.332e-04,-0.68,-0.78
2.351e-04,-0.7,-0.64
2.371e-04,-0.7,-0.82
2.390e-04,-0.72,-0.62
2.409e-04,-0.74,-0.78
2.428e-04,-0.64,-0.5
2.447e-04,-0.6,-0.78
2.467e-04,-0.6,-0.52
2.486e-04,-0.76,-0.8
2.505e-04,-0.6,-0.56
2.524e-04,-0.68,-0.7
2.543e-04,-0.62,-0.54
2.563e-04,-0.64,-0.7
2.582e-04,-0.58,-0.56
2.601e-04,-0.68,-0.7
2.620e-04,-0.62,-0.56
2.639e-04,-0.58,-0.82
2.659e-04,-0.7,-0.54
2.678e-04,-0.76,-0.84
2.697e-04,-0.72,-0.64
2.716e-04,-0.68,-0.78
2.735e-04,-0.76,-0.64
2.755e-04,-0.62,-0.82
2.774e-04,-0.7,-0.58
2.793e-04,-0.74,-0.82
2.812e-04,-0.68,-0.6
2.831e-04,-0.62,-0.68
2.851e-04,-0.6,-0.56
2.870e-04,-0.62,-0.78
2.889e-04,-0.7,-0.58
2.908e-04,-0.74,-0.78
2.927e-04,-0.7,-0.66
2.947e-04,-0.72,-0.76
2.966e-04,-0.62,-0.58
2.985e-04,-0.74,-0.82
3.004e-04,-0.72,-0.64
3.023e-04,-0.78,-0.86
3.043e-04,-0.7,-0.68
3.062e-04,-0.84,-0.88
3.081e-04,-0.72,-0.64
3.100e-04,-0.74,-0.78
3.119e-04,-0.72,-0.64
3.139e-04,-0.66,-0.76
3.158e-04,-0.7,-0.6
3.177e-04,-0.68,-0.78
3.196e-04,-0.66,-0.58
3.215e-04,-0.58,-0.66
3.235e-04,-0.6,-0.52
3.254e-04,-0.56,-0.68
3.273e-04,-0.62,-0.52
3.292e-04,-0.58,-0.76
3.311e-04,-0.74,-0.54
3.331e-04,-0.62,-0.7
3.350e-04,-0.68,-0.56
3.369e-04,-0.64,-0.7
3.388e-04,-0.54,-0.4
3.407e-04,-0.48,-0.62
3.427e-04,-0.5,-0.4
3.446e-04,-0.58,-0.66
3.465e-04,-0.56,-0.52
3.484e-04,-0.66,-0.7
3.503e-04,-0.56,-0.56
3.523e-04,-0.66,-0.72
3.542e-04,-0.62,-0.56
3.561e-04,-0.64,-0.7
3.580e-04,-0.62,-0.56
3.599e-04,-0.62,-0.74
3.619e-04,-0.66,-0.56
3.638e-04,-0.68,-0.72
3.657e-04,-0.6,-0.54
3.676e-04,-0.64,-0.78
3.695e-04,-0.66,-0.6
3.715e-04,-0.66,-0.84
3.734e-04,-0.76,-0.62
3.753e-04,-0.74,-0.84
3.772e-04,-0.76,-0.66
3.791e-04,-0.66,-0.74
3.811e-04,-0.66,-0.6
3.830e-04,-0.64,-0.78
3.849e-04,-0.6,-0.56
3.868e-04,-0.72,-0.78
3.887e-04,-0.66,-0.5
3.907e-04,-0.56,-0.6
3.926e-04,-0.48,-0.4
3.945e-04,-0.46,-0.54
3.964e-04,-0.38,-0.36
3.983e-04,-0.52,-0.62
4.003e-04,-0.5,-0.44
4.022e-04,-0.6,-0.72
4.041e-04,-0.62,-0.54
4.060e-04,-0.68,-0.78
4.079e-04,-0.72,-0.6
4.099e-04,-0.7,-0.76
4.118e-04,-0.7,-0.58
4.137e-04,-0.6,-0.7
4.156e-04,-0.68,-0.58
4.175e-04,-0.58,-0.66
4.195e-04,-0.62,-0.5
4.214e-04,-0.54,-0.72
4.233e-04,-0.68,-0.52
4.252e-04,-0.62,-0.8
4.271e-04,-0.8,-0.58
4.291e-04,-0.68,-0.74
4.310e-04,-0.68,-0.58
4.329e-04,-0.64,-0.7
4.348e-04,-0.6,-0.5
4.367e-04,-0.56,-0.68
4.387e-04,-0.58,-0.48
4.406e-04,-0.66,-0.78
4.425e-04,-0.7,-0.6
4.444e-04,-0.7,-0.72
4.463e-04,-0.5,-0.44
4.483e-04,-0.56,-0.64
4.502e-04,-0.54,-0.48
4.521e-04,-0.6,-0.62
4.540e-04,-0.5,-0.46
4.559e-04,-0.5,-0.6
4.579e-04,-0.52,-0.44
4.598e-04,-0.52,-0.62
4.617e-04,-0.5,-0.42
4.636e-04,-0.48,-0.6
4.655e-04,-0.54,-0.44
4.675e-04,-0.52,-0.66
4.694e-04,-0.62,-0.5
4.713e-04,-0.6,-0.74
4.732e-04,-0.7,-0.58
4.751e-04,-0.62,-0.72
4.771e-04,-0.6,-0.46
4.790e-04,-0.5,-0.64
4.809e-04,-0.54,-0.48
4.828e-04,-0.56,-0.66
4.847e-04,-0.58,-0.48
4.867e-04,-0.56,-0.6
4.886e-04,-0.48,-0.38
4.905e-04,-0.48,-0.58
4.924e-04,-0.48,-0.42
4.943e-04,-0.56,-0.64
4.963e-04,-0.54,-0.5
4.982e-04,-0.6,-0.7
5.001e-04,-0.56,-0.52
5.020e-04,-0.64,-0.7
5.039e-04,-0.52,-0.48
5.059e-04,-0.7,-0.72
5.078e-04,-0.66,-0.58
5.097e-04,-0.58,-0.72
5.116e-04,-0.6,-0.52
5.135e-04,-0.62,-0.68
5.155e-04,-0.6,-0.52
5.174e-04,-0.56,-0.7
5.193e-04,-0.62,-0.5
5.212e-04,-0.58,-0.64
5.231e-04,-0.56,-0.4
5.251e-04,-0.46,-0.62
5.270e-04,-0.6,-0.38
5.289e-04,-0.54,-0.6
5.308e-04,-0.48,-0.36
5.327e-04,-0.42,-0.72
5.347e-04,-0.62,-0.38
5.366e-04,-0.7,-0.8
5.385e-04,-0.7,-0.64
5.404e-04,-0.7,-0.78
5.424e-04,-0.66,-0.6
5.443e-04,-0.68,-0.7
5.462e-04,-0.58,-0.54
5.481e-04,-0.68,-0.76
5.500e-04,-0.56,-0.54
5.520e-04,-0.72,-0.78
5.539e-04,-0.64,-0.58
5.558e-04,-0.6,-0.68
5.577e-04,-0.6,-0.54
5.596e-04,-0.62,-0.72
5.616e-04,-0.66,-0.56
5.635e-04,-0.62,-0.74
5.654e-04,-0.72,-0.6
5.673e-04,-0.62,-0.7
5.692e-04,-0.68,-0.54
5.712e-04,-0.54,-0.66
5.731e-04,-0.6,-0.48
5.750e-04,-0.6,-0.78
5.769e-04,-0.72,-0.58
5.788e-04,-0.66,-0.76
5.808e-04,-0.68,-0.62
5.827e-04,-0.7,-0.76
5.846e-04,-0.66,-0.54
5.865e-04,-0.62,-0.68
5.884e-04,-0.54,-0.48
5.904e-04,-0.62,-0.68
5.923e-04,-0.54,-0.5
5.942e-04,-0.66,-0.7
5.961e-04,-0.56,-0.52
5.980e-04,-0.64,-0.74
6.000e-04,-0.62,-0.56
6.019e-04,-0.7,-0.72
6.038e-04,-0.58,-0.54
6.057e-04,-0.66,-0.72
6.076e-04,-0.64,-0.56
6.096e-04,-0.62,-0.68
6.115e-04,-0.54,-0.46
6.134e-04,-0.52,-0.64
6.153e-04,-0.6,-0.46
6.172e-04,-0.5,-0.64
6.192e-04,-0.6,-0.48
6.211e-04,-0.56,-0.68
6.230e-04,-0.64,-0.5
6.249e-04,-0.52,-0.68
6.268e-04,-0.62,-0.5
6.288e-04,-0.6,-0.7
6.307e-04,-0.6,-0.54
6.326e-04,-0.6,-0.68
6.345e-04,-0.54,-0.48
6.364e-04,-0.56,-0.6
6.384e-04,-0.48,-0.46
6.403e-04,-0.56,-0.7
6.422e-04,-0.6,-0.48
6.441e-04,-0.66,-0.7
6.460e-04,-0.56,-0.5
6.480e-04,-0.56,-0.6
6.499e-04,-0.46,-0.44
6.518e-04,-0.56,-0.64
6.537e-04,-0.54,-0.5
6.556e-04,-0.56,-0.64
6.576e-04,-0.56,-0.5
6.595e-04,-0.54,-0.64
6.614e-04,-0.6,-0.48
6.633e-04,-0.52,-0.64
6.652e-04,-0.56,-0.48
6.672e-04,-0.56,-0.64
6.691e-04,-0.52,-0.38
6.710e-04,-0.4,-0.52
6.729e-04,-0.48,-0.38
6.748e-04,-0.44,-0.58
6.768e-04,-0.44,-0.36
6.787e-04,-0.54,-0.74
6.806e-04,-0.64,-0.48
6.825e-04,-0.7,-0.74
6.844e-04,-0.62,-0.56
6.864e-04,-0.64,-0.74
6.883e-04,-0.64,-0.58
6.902e-04,-0.68,-0.74
6.921e-04,-0.62,-0.6
6.940e-04,-0.72,-0.76
6.960e-04,-0.58,-0.54
6.979e-04,-0.68,-0.68
6.998e-04,-0.58,-0.52
7.017e-04,-0.62,-0.64
7.036e-04,-0.56,-0.44
7.056e-04,-0.5,-0.62
7.075e-04,-0.56,-0.44
7.094e-04,-0.48,-0.56
7.113e-04,-0.5,-0.4
7.132e-04,-0.46,-0.56
7.152e-04,-0.54,-0.4
7.171e-04,-0.42,-0.6
7.190e-04,-0.5,-0.42
7.209e-04,-0.52,-0.62
7.228e-04,-0.56,-0.48
7.248e-04,-0.54,-0.68
7.267e-04,-0.62,-0.5
7.286e-04,-0.6,-0.68
7.305e-04,-0.6,-0.54
7.324e-04,-0.6,-0.68
7.344e-04,-0.58,-0.54
7.363e-04,-0.64,-0.74
7.382e-04,-0.66,-0.6
7.401e-04,-0.68,-0.72
7.420e-04,-0.62,-0.6
7.440e-04,-0.7,-0.72
7.459e-04,-0.62,-0.56
7.478e-04,-0.62,-0.8
7.497e-04,-0.66,-0.56
7.516e-04,-0.74,-0.8
7.536e-04,-0.68,-0.62
7.555e-04,-0.62,-0.68
7.574e-04,-0.56,-0.48
7.593e-04,-0.5,-0.6
7.612e-04,-0.56,-0.46
7.632e-04,-0.52,-0.64
7.651e-04,-0.56,-0.48
7.670e-04,-0.56,-0.68
7.689e-04,-0.66,-0.52
7.708e-04,-0.6,-0.72
7.728e-04,-0.66,-0.54
7.747e-04,-0.58,-0.66
7.766e-04,-0.62,-0.5
7.785e-04,-0.62,-0.7
7.804e-04,-0.6,-0.54
7.824e-04,-0.64,-0.7
7.843e-04,-0.62,-0.56
7.862e-04,-0.62,-0.78
7.881e-04,-0.62,-0.54
7.900e-04,-0.78,-0.82
7.920e-04,-0.66,-0.6
7.939e-04,-0.68,-0.74
7.958e-04,-0.66,-0.6
7.977e-04,-0.66,-0.7
7.996e-04,-0.58,-0.5
8.016e-04,-0.58,-0.66
8.035e-04,-0.58,-0.52
8.054e-04,-0.6,-0.64
8.073e-04,-0.54,-0.46
8.092e-04,-0.54,-0.64
8.112e-04,-0.56,-0.42
8.131e-04,-0.46,-0.54
8.150e-04,-0.54,-0.42
8.169e-04,-0.46,-0.64
8.188e-04,-0.58,-0.44
8.208e-04,-0.5,-0.8
8.227e-04,-0.68,-0.5
8.246e-04,-0.72,-0.82
8.265e-04,-0.74,-0.68
8.284e-04,-0.72,-0.78
8.304e-04,-0.64,-0.52
8.323e-04,-0.58,-0.62
8.342e-04,-0.48,-0.44
8.361e-04,-0.54,-0.62
8.380e-04,-0.54,-0.46
8.400e-04,-0.52,-0.62
8.419e-04,-0.46,-0.42
8.438e-04,-0.6,-0.66
8.457e-04,-0.54,-0.5
8.476e-04,-0.6,-0.64
8.496e-04,-0.56,-0.5
8.515e-04,-0.56,-0.6
8.534e-04,-0.54,-0.38
8.553e-04,-0.44,-0.6
8.573e-04,-0.54,-0.44
8.592e-04,-0.5,-0.66
8.611e-04,-0.62,-0.46
8.630e-04,-0.56,-0.78
8.649e-04,-0.7,-0.56
8.669e-04,-0.68,-0.76
8.688e-04,-0.72,-0.62
8.707e-04,-0.68,-0.78
8.726e-04,-0.7,-0.58
8.745e-04,-0.6,-0.74
8.765e-04,-0.68,-0.58
8.784e-04,-0.64,-0.68
8.803e-04,-0.6,-0.5
8.822e-04,-0.56,-0.62
8.841e-04,-0.48,-0.42
8.861e-04,-0.52,-0.7
8.880e-04,-0.52,-0.44
8.899e-04,-0.66,-0.68
8.918e-04,-0.58,-0.56
8.937e-04,-0.62,-0.66
8.957e-04,-0.56,-0.52
8.976e-04,-0.58,-0.64
8.995e-04,-0.56,-0.5
9.014e-04,-0.6,-0.7
9.033e-04,-0.6,-0.52
9.053e-04,-0.62,-0.76
9.072e-04,-0.64,-0.58
9.091e-04,-0.68,-0.78
9.110e-04,-0.74,-0.6
9.129e-04,-0.6,-0.68
9.149e-04,-0.64,-0.54
9.168e-04,-0.56,-0.72
9.187e-04,-0.62,-0.56
9.206e-04,-0.64,-0.8
9.225e-04,-0.74,-0.62
9.245e-04,-0.66,-0.76
9.264e-04,-0.7,-0.6
9.283e-04,-0.66,-0.7
9.302e-04,-0.6,-0.54
9.321e-04,-0.64,-0.76
9.341e-04,-0.66,-0.56
9.360e-04,-0.72,-0.74
9.379e-04,-0.62,-0.58
9.398e-04,-0.68,-0.72
9.417e-04,-0.6,-0.56
9.437e-04,-0.72,-0.74
9.456e-04,-0.64,-0.58
9.475e-04,-0.68,-0.74
9.494e-04,-0.64,-0.6
9.513e-04,-0.68,-0.74
9.533e-04,-0.62,-0.56
9.552e-04,-0.6,-0.72
9.571e-04,-0.68,-0.56
9.590e-04,-0.64,-0.82
9.609e-04,-0.78,-0.6
9.629e-04,-0.68,-0.76
9.648e-04,-0.7,-0.6
9.667e-04,-0.62,-0.7
9.686e-04,-0.66,-0.54
9.705e-04,-0.58,-0.68
9.725e-04,-0.62,-0.5
9.744e-04,-0.52,-0.66
9.763e-04,-0.54,-0.48
9.782e-04,-0.62,-0.66
9.801e-04,-0.52,-0.48
9.821e-04,-0.66,-0.72
9.840e-04,-0.62,-0.54
9.859e-04,-0.62,-0.66
9.878e-04,-0.52,-0.48
9.897e-04,-0.62,-0.66
9.917e-04,-0.48,-0.46
9.936e-04,-0.52,-0.56
9.955e-04,-0.44,-0.4
9.974e-04,-0.52,-0.64
9.993e-04,-0.56,-0.44
1.001e-03,-0.46,-0.58
1.003e-03,-0.52,-0.42
1.005e-03,-0.42,-0.54
1.007e-03,-0.5,-0.4
1.009e-03,-0.44,-0.6
1.011e-03,-0.5,-0.42
1.013e-03,-0.5,-0.66
1.015e-03,-0.62,-0.48
1.017e-03,-0.6,-0.72
1.019e-03,-0.64,-0.56
1.020e-03,-0.68,-0.82
1.022e-03,-0.76,-0.6
1.024e-03,-0.64,-0.72
1.026e-03,-0.64,-0.56
1.028e-03,-0.64,-0.68
1.030e-03,-0.52,-0.5
1.032e-03,-0.6,-0.66
1.034e-03,-0.56,-0.54
1.036e-03,-0.6,-0.64
1.038e-03,-0.5,-0.48
1.040e-03,-0.6,-0.66
1.042e-03,-0.6,-0.5
1.044e-03,-0.62,-0.74
1.045e-03,-0.66,-0.56
1.047e-03,-0.66,-0.76
1.049e-03,-0.62,-0.58
1.051e-03,-0.68,-0.74
1.053e-03,-0.6,-0.52
1.055e-03,-0.62,-0.78
1.057e-03,-0.7,-0.6
1.059e-03,-0.72,-0.78
1.061e-03,-0.7,-0.52
1.063e-03,-0.54,-0.68
1.065e-03,-0.6,-0.48
1.067e-03,-0.6,-0.82
1.068e-03,-0.76,-0.58
1.070e-03,-0.72,-0.86
1.072e-03,-0.8,-0.68
1.074e-03,-0.82,-0.86
1.076e-03,-0.8,-0.66
1.078e-03,-0.72,-0.82
1.080e-03,-0.66,-0.54
1.082e-03,-0.6,-0.62
1.084e-03,-0.46,-0.38
1.086e-03,-0.46,-0.52
1.088e-03,-0.4,-0.36
1.090e-03,-0.5,-0.6
1.092e-03,-0.5,-0.44
1.093e-03,-0.56,-0.64
1.095e-03,-0.54,-0.46
1.097e-03,-0.58,-0.78
1.099e-03,-0.64,-0.5
1.101e-03,-0.7,-0.76
1.103e-03,-0.6,-0.52
1.105e-03,-0.54,-0.74
1.107e-03,-0.66,-0.52
1.109e-03,-0.64,-0.7
1.111e-03,-0.68,-0.58
1.113e-03,-0.6,-0.68
1.115e-03,-0.64,-0.5
1.116e-03,-0.52,-0.6
1.118e-03,-0.56,-0.44
1.120e-03,-0.54,-0.64
1.122e-03,-0.56,-0.48
1.124e-03,-0.54,-0.62
1.126e-03,-0.5,-0.44
1.128e-03,-0.54,-0.62
1.130e-03,-0.48,-0.46
1.132e-03,-0.58,-0.66
1.134e-03,-0.56,-0.5
1.136e-03,-0.6,-0.62
1.138e-03,-0.48,-0.42
1.140e-03,-0.5,-0.64
1.141e-03,-0.46,-0.42
1.143e-03,-0.6,-0.7
1.145e-03,-0.6,-0.52
1.147e-03,-0.58,-0.78
1.149e-03,-0.68,-0.52
1.151e-03,-0.72,-0.84
1.153e-03,-0.78,-0.68
1.155e-03,-0.7,-0.76
1.157e-03,-0.7,-0.6
1.159e-03,-0.64,-0.74
1.161e-03,-0.7,-0.6
1.163e-03,-0.6,-0.68
1.164e-03,-0.58,-0.46
1.166e-03,-0.48,-0.56
1.168e-03,-0.46,-0.4
1.170e-03,-0.46,-0.64
1.172e-03,-0.46,-0.4
1.174e-03,-0.6,-0.68
1.176e-03,-0.6,-0.48
1.178e-03,-0.54,-0.64
1.180e-03,-0.52,-0.46
1.182e-03,-0.58,-0.78
1.184e-03,-0.58,-0.5
1.186e-03,-0.76,-0.82
1.188e-03,-0.7,-0.66
1.189e-03,-0.78,-0.8
1.191e-03,-0.68,-0.64
1.193e-03,-0.72,-0.76
1.195e-03,-0.58,-0.54
1.197e-03,-0.66,-0.8
1.199e-03,-0.72,-0.6
1.201e-03,-0.72,-0.8
1.203e-03,-0.72,-0.62
1.205e-03,-0.64,-0.74
1.207e-03,-0.72,-0.6
1.209e-03,-0.58,-0.66
1.211e-03,-0.62,-0.52
1.212e-03,-0.58,-0.68
1.214e-03,-0.64,-0.5
1.216e-03,-0.56,-0.66
1.218e-03,-0.62,-0.5
1.220e-03,-0.54,-0.7
1.222e-03,-0.62,-0.5
1.224e-03,-0.64,-0.7
1.226e-03,-0.64,-0.58
1.228e-03,-0.66,-0.72
1.230e-03,-0.64,-0.56
1.232e-03,-0.64,-0.66
1.234e-03,-0.52,-0.48
1.236e-03,-0.64,-0.72
1.237e-03,-0.6,-0.56
1.239e-03,-0.7,-0.74
1.241e-03,-0.66,-0.6
1.243e-03,-0.68,-0.76
1.245e-03,-0.66,-0.6
1.247e-03,-0.7,-0.8
1.249e-03,-0.7,-0.6
1.251e-03,-0.64,-0.7
1.253e-03,-0.66,-0.54
1.255e-03,-0.58,-0.68
1.257e-03,-0.62,-0.52
1.259e-03,-0.6,-0.7
1.260e-03,-0.6,-0.48
1.262e-03,-0.52,-0.66
1.264e-03,-0.6,-0.52
1.266e-03,-0.6,-0.74
1.268e-03,-0.66,-0.58
1.270e-03,-0.66,-0.72
1.272e-03,-0.58,-0.52
1.274e-03,-0.58,-0.62
1.276e-03,-0.52,-0.44
1.278e-03,-0.54,-0.64
1.280e-03,-0.56,-0.44
1.282e-03,-0.6,-0.64
1.284e-03,-0.54,-0.48
1.285e-03,-0.56,-0.64
1.287e-03,-0.54,-0.46
1.289e-03,-0.54,-0.64
1.291e-03,-0.5,-0.44
1.293e-03,-0.6,-0.64
1.295e-03,-0.56,-0.5
1.297e-03,-0.6,-0.66
1.299e-03,-0.56,-0.44
1.301e-03,-0.48,-0.64
1.303e-03,-0.6,-0.44
1.305e-03,-0.52,-0.72
1.307e-03,-0.68,-0.5
1.308e-03,-0.64,-0.86
1.310e-03,-0.82,-0.6
1.312e-03,-0.78,-0.86
1.314e-03,-0.72,-0.56
1.316e-03,-0.58,-0.68
1.318e-03,-0.62,-0.48
1.320e-03,-0.52,-0.6
1.322e-03,-0.52,-0.46
1.324e-03,-0.52,-0.68
1.326e-03,-0.54,-0.46
1.328e-03,-0.62,-0.66
1.330e-03,-0.52,-0.5
1.332e-03,-0.62,-0.76
1.333e-03,-0.62,-0.54
1.335e-03,-0.74,-0.8
1.337e-03,-0.68,-0.6
1.339e-03,-0.64,-0.76
1.341e-03,-0.64,-0.56
1.343e-03,-0.7,-0.76
1.345e-03,-0.62,-0.58
1.347e-03,-0.64,-0.72
1.349e-03,-0.68,-0.56
1.351e-03,-0.58,-0.64
1.353e-03,-0.58,-0.5
1.355e-03,-0.56,-0.66
1.356e-03,-0.62,-0.52
1.358e-03,-0.54,-0.68
1.360e-03,-0.66,-0.5
1.362e-03,-0.6,-0.7
1.364e-03,-0.64,-0.46
1.366e-03,-0.5,-0.58
1.368e-03,-0.46,-0.36
1.370e-03,-0.44,-0.66
1.372e-03,-0.54,-0.4
1.374e-03,-0.64,-0.7
1.376e-03,-0.6,-0.56
1.378e-03,-0.64,-0.7
1.380e-03,-0.6,-0.48
1.381e-03,-0.56,-0.6
1.383e-03,-0.52,-0.46
1.385e-03,-0.58,-0.64
1.387e-03,-0.56,-0.46
1.389e-03,-0.62,-0.66
1.391e-03,-0.58,-0.52
1.393e-03,-0.6,-0.72
1.395e-03,-0.58,-0.5
1.397e-03,-0.66,-0.8
1.399e-03,-0.74,-0.6
1.401e-03,-0.62,-0.68
1.403e-03,-0.6,-0.46
1.404e-03,-0.46,-0.64
1.406e-03,-0.58,-0.44
1.408e-03,-0.54,-0.64
1.410e-03,-0.6,-0.48
1.412e-03,-0.52,-0.68
1.414e-03,-0.6,-0.5
1.416e-03,-0.54,-0.74
1.418e-03,-0.66,-0.52
1.420e-03,-0.66,-0.72
1.422e-03,-0.64,-0.58
1.424e-03,-0.68,-0.8
1.426e-03,-0.6,-0.56
1.428e-03,-0.8,-0.84
1.429e-03,-0.62,-0.56
1.431e-03,-0.64,-0.7
1.433e-03,-0.58,-0.52
1.435e-03,-0.6,-0.7
1.437e-03,-0.58,-0.52
1.439e-03,-0.66,-0.7
1.441e-03,-0.6,-0.52
1.443e-03,-0.58,-0.66
1.445e-03,-0.58,-0.5
1.447e-03,-0.58,-0.68
1.449e-03,-0.64,-0.52
1.451e-03,-0.54,-0.62
1.452e-03,-0.58,-0.42
1.454e-03,-0.44,-0.6
1.456e-03,-0.52,-0.42
1.458e-03,-0.52,-0.7
1.460e-03,-0.64,-0.48
1.462e-03,-0.64,-0.72
1.464e-03,-0.58,-0.5
1.466e-03,-0.58,-0.66
1.468e-03,-0.54,-0.5
1.470e-03,-0.62,-0.74
1.472e-03,-0.6,-0.56
1.474e-03,-0.72,-0.78
1.476e-03,-0.68,-0.62
1.477e-03,-0.72,-0.76
1.479e-03,-0.66,-0.6
1.481e-03,-0.68,-0.7
1.483e-03,-0.58,-0.48
1.485e-03,-0.58,-0.72
1.487e-03,-0.58,-0.48
1.489e-03,-0.7,-0.8
1.491e-03,-0.64,-0.56
1.493e-03,-0.78,-0.82
1.495e-03,-0.72,-0.58
1.497e-03,-0.64,-0.7
1.499e-03,-0.64,-0.56
1.500e-03,-0.58,-0.78
1.502e-03,-0.76,-0.56
1.504e-03,-0.66,-0.76
1.506e-03,-0.66,-0.54
1.508e-03,-0.56,-0.66
1.510e-03,-0.56,-0.42
1.512e-03,-0.44,-0.66
1.514e-03,-0.56,-0.42
1.516e-03,-0.6,-0.66
1.518e-03,-0.56,-0.48
1.520e-03,-0.58,-0.64
1.522e-03,-0.5,-0.48
1.524e-03,-0.6,-0.72
1.525e-03,-0.6,-0.54
1.527e-03,-0.7,-0.74
1.529e-03,-0.64,-0.58
1.531e-03,-0.68,-0.78
1.533e-03,-0.66,-0.62
1.535e-03,-0.74,-0.84
1.537e-03,-0.72,-0.68
1.539e-03,-0.78,-0.86
1.541e-03,-0.74,-0.6
1.543e-03,-0.66,-0.78
1.545e-03,-0.72,-0.62
1.547e-03,-0.62,-0.68
1.548e-03,-0.6,-0.52
1.550e-03,-0.52,-0.6
1.552e-03,-0.5,-0.42
1.554e-03,-0.48,-0.58
1.556e-03,-0.54,-0.42
1.558e-03,-0.46,-0.6
1.560e-03,-0.54,-0.44
1.562e-03,-0.52,-0.64
1.564e-03,-0.6,-0.48
1.566e-03,-0.58,-0.66
1.568e-03,-0.6,-0.52
1.570e-03,-0.58,-0.64
1.572e-03,-0.54,-0.5
1.573e-03,-0.6,-0.64
1.575e-03,-0.52,-0.5
1.577e-03,-0.6,-0.64
1.579e-03,-0.46,-0.44
1.581e-03,-0.64,-0.72
1.583e-03,-0.64,-0.58
1.585e-03,-0.62,-0.66
1.587e-03,-0.54,-0.5
1.589e-03,-0.62,-0.68
1.591e-03,-0.62,-0.5
1.593e-03,-0.54,-0.64
1.595e-03,-0.54,-0.46
1.596e-03,-0.56,-0.68
1.598e-03,-0.64,-0.48
1.600e-03,-0.48,-0.68
1.602e-03,-0.6,-0.46
1.604e-03,-0.58,-0.66
1.606e-03,-0.62,-0.54
1.608e-03,-0.58,-0.68
1.610e-03,-0.62,-0.48
1.612e-03,-0.52,-0.62
1.614e-03,-0.54,-0.48
1.616e-03,-0.56,-0.6
1.618e-03,-0.5,-0.44
1.620e-03,-0.52,-0.54
1.621e-03,-0.42,-0.4
1.623e-03,-0.52,-0.64
1.625e-03,-0.5,-0.42
1.627e-03,-0.6,-0.7
1.629e-03,-0.52,-0.48
1.631e-03,-0.68,-0.74
1.633e-03,-0.62,-0.56
1.635e-03,-0.62,-0.68
1.637e-03,-0.6,-0.52
1.639e-03,-0.56,-0.6
1.641e-03,-0.5,-0.44
1.643e-03,-0.5,-0.72
1.645e-03,-0.64,-0.46
1.646e-03,-0.58,-0.64
1.648e-03,-0.6,-0.38
1.650e-03,-0.38,-0.48
1.652e-03,-0.44,-0.3
1.654e-03,-0.36,-0.54
1.656e-03,-0.5,-0.32
1.658e-03,-0.44,-0.56
1.660e-03,-0.48,-0.38
1.662e-03,-0.52,-0.68
1.664e-03,-0.62,-0.48
1.666e-03,-0.66,-0.76
1.668e-03,-0.7,-0.58
1.669e-03,-0.62,-0.68
1.671e-03,-0.58,-0.52
1.673e-03,-0.6,-0.66
1.675e-03,-0.52,-0.5
1.677e-03,-0.64,-0.76
1.679e-03,-0.58,-0.54
1.681e-03,-0.74,-0.8
1.683e-03,-0.7,-0.64
1.685e-03,-0.7,-0.8
1.687e-03,-0.64,-0.6
1.689e-03,-0.7,-0.78
1.691e-03,-0.64,-0.54
1.693e-03,-0.58,-0.64
1.694e-03,-0.56,-0.5
1.696e-03,-0.54,-0.6
1.698e-03,-0.54,-0.46
1.700e-03,-0.48,-0.68
1.702e-03,-0.62,-0.48
1.704e-03,-0.58,-0.7
1.706e-03,-0.66,-0.58
1.708e-03,-0.6,-0.72
1.710e-03,-0.62,-0.56
1.712e-03,-0.62,-0.7
1.714e-03,-0.56,-0.5
1.716e-03,-0.58,-0.74
1.717e-03,-0.62,-0.54
1.719e-03,-0.68,-0.76
1.721e-03,-0.64,-0.6
1.723e-03,-0.74,-0.76
1.725e-03,-0.58,-0.52
1.727e-03,-0.62,-0.64
1.729e-03,-0.56,-0.48
1.731e-03,-0.58,-0.64
1.733e-03,-0.54,-0.48
1.735e-03,-0.62,-0.64
1.737e-03,-0.52,-0.48
1.739e-03,-0.58,-0.66
1.741e-03,-0.6,-0.5
1.742e-03,-0.54,-0.62
1.744e-03,-0.52,-0.46
1.746e-03,-0.56,-0.68
1.748e-03,-0.66,-0.52
1.750e-03,-0.58,-0.68
1.752e-03,-0.6,-0.48
1.754e-03,-0.52,-0.72
1.756e-03,-0.7,-0.5
1.758e-03,-0.62,-0.74
1.760e-03,-0.7,-0.58
1.762e-03,-0.68,-0.74
1.764e-03,-0.64,-0.6
1.765e-03,-0.66,-0.74
1.767e-03,-0.66,-0.62
1.769e-03,-0.68,-0.78
1.771e-03,-0.64,-0.6
1.773e-03,-0.7,-0.72
1.775e-03,-0.56,-0.54
1.777e-03,-0.66,-0.68
1.779e-03,-0.54,-0.54
1.781e-03,-0.64,-0.7
1.783e-03,-0.6,-0.54
1.785e-03,-0.6,-0.72
1.787e-03,-0.6,-0.56
1.789e-03,-0.64,-0.76
1.790e-03,-0.72,-0.6
1.792e-03,-0.6,-0.72
1.794e-03,-0.66,-0.56
1.796e-03,-0.62,-0.68
1.798e-03,-0.6,-0.52
1.800e-03,-0.58,-0.72
1.802e-03,-0.68,-0.56
1.804e-03,-0.6,-0.72
1.806e-03,-0.68,-0.6
1.808e-03,-0.66,-0.76
1.810e-03,-0.62,-0.56
1.812e-03,-0.62,-0.7
1.813e-03,-0.64,-0.56
1.815e-03,-0.62,-0.66
1.817e-03,-0.54,-0.5
1.819e-03,-0.58,-0.68
1.821e-03,-0.58,-0.52
1.823e-03,-0.62,-0.78
1.825e-03,-0.62,-0.56
1.827e-03,-0.76,-0.78
1.829e-03,-0.64,-0.6
1.831e-03,-0.72,-0.82
1.833e-03,-0.7,-0.6
1.835e-03,-0.7,-0.76
1.837e-03,-0.7,-0.6
1.838e-03,-0.68,-0.78
1.840e-03,-0.7,-0.62
1.842e-03,-0.64,-0.7
1.844e-03,-0.54,-0.44
1.846e-03,-0.48,-0.66
1.848e-03,-0.54,-0.4
1.850e-03,-0.56,-0.68
1.852e-03,-0.62,-0.54
1.854e-03,-0.62,-0.72
1.856e-03,-0.66,-0.58
1.858e-03,-0.62,-0.7
1.860e-03,-0.64,-0.56
1.861e-03,-0.62,-0.72
1.863e-03,-0.64,-0.56
1.865e-03,-0.66,-0.7
1.867e-03,-0.62,-0.58
1.869e-03,-0.66,-0.74
1.871e-03,-0.6,-0.56
1.873e-03,-0.7,-0.72
1.875e-03,-0.58,-0.56
1.877e-03,-0.66,-0.74
1.879e-03,-0.58,-0.56
1.881e-03,-0.68,-0.8
1.883e-03,-0.7,-0.62
1.885e-03,-0.72,-0.8
1.886e-03,-0.72,-0.64
1.888e-03,-0.68,-0.8
1.890e-03,-0.72,-0.62
1.892e-03,-0.72,-0.84
1.894e-03,-0.78,-0.66
1.896e-03,-0.66,-0.76
1.898e-03,-0.7,-0.58
1.900e-03,-0.58,-0.68
1.902e-03,-0.66,-0.54
1.904e-03,-0.56,-0.7
1.906e-03,-0.62,-0.54
1.908e-03,-0.62,-0.7
1.909e-03,-0.58,-0.52
1.911e-03,-0.64,-0.72
1.913e-03,-0.62,-0.58
1.915e-03,-0.64,-0.74
1.917e-03,-0.64,-0.58
1.919e-03,-0.72,-0.78
1.921e-03,-0.68,-0.58
1.923e-03,-0.66,-0.68
1.925e-03,-0.54,-0.5
1.927e-03,-0.62,-0.7
1.929e-03,-0.6,-0.56
1.931e-03,-0.66,-0.68
1.933e-03,-0.54,-0.42
1.934e-03,-0.52,-0.62
1.936e-03,-0.54,-0.44
1.938e-03,-0.54,-0.68
1.940e-03,-0.6,-0.5
1.942e-03,-0.62,-0.72
1.944e-03,-0.66,-0.58
1.946e-03,-0.64,-0.74
1.948e-03,-0.68,-0.54
1.950e-03,-0.56,-0.74
1.952e-03,-0.66,-0.54
1.954e-03,-0.62,-0.8
1.956e-03,-0.72,-0.6
1.957e-03,-0.72,-0.78
1.959e-03,-0.68,-0.6
1.961e-03,-0.66,-0.74
1.963e-03,-0.66,-0.58
1.965e-03,-0.72,-0.84
1.967e-03,-0.74,-0.66
1.969e-03,-0.74,-0.76
1.971e-03,-0.64,-0.58
1.973e-03,-0.66,-0.68
1.975e-03,-0.52,-0.48
1.977e-03,-0.56,-0.64
1.979e-03,-0.54,-0.48
1.981e-03,-0.58,-0.72
1.982e-03,-0.62,-0.52
1.984e-03,-0.64,-0.76
1.986e-03,-0.66,-0.6
1.988e-03,-0.68,-0.76
1.990e-03,-0.7,-0.6
1.992e-03,-0.66,-0.76
1.994e-03,-0.7,-0.62
1.996e-03,-0.66,-0.76
1.998e-03,-0.72,-0.6
2.000e-03,-0.64,-0.74
2.002e-03,-0.68,-0.58
2.004e-03,-0.64,-0.72
2.005e-03,-0.68,-0.52
2.007e-03,-0.54,-0.64
2.009e-03,-0.54,-0.44
2.011e-03,-0.6,-0.66
2.013e-03,-0.58,-0.52
2.015e-03,-0.62,-0.68
2.017e-03,-0.6,-0.54
2.019e-03,-0.62,-0.72
2.021e-03,-0.54,-0.52
2.023e-03,-0.68,-0.68
2.025e-03,-0.48,-0.46
2.027e-03,-0.62,-0.66
2.029e-03,-0.56,-0.54
2.030e-03,-0.64,-0.78
2.032e-03,-0.7,-0.56
2.034e-03,-0.7,-0.78
2.036e-03,-0.72,-0.56
2.038e-03,-0.58,-0.64
2.040e-03,-0.56,-0.4
2.042e-03,-0.44,-0.62
2.044e-03,-0.58,-0.4
2.046e-03,-0.54,-0.7
2.048e-03,-0.66,-0.5
2.050e-03,-0.6,-0.76
2.052e-03,-0.7,-0.6
2.053e-03,-0.66,-0.8
2.055e-03,-0.72,-0.64
2.057e-03,-0.72,-0.8
2.059e-03,-0.64,-0.6
2.061e-03,-0.68,-0.76
2.063e-03,-0.64,-0.6
2.065e-03,-0.72,-0.86
2.067e-03,-0.78,-0.66
2.069e-03,-0.78,-0.82
2.071e-03,-0.7,-0.66
2.073e-03,-0.72,-0.76
2.075e-03,-0.64,-0.58
2.077e-03,-0.62,-0.74
2.078e-03,-0.58,-0.5
2.080e-03,-0.7,-0.8
2.082e-03,-0.74,-0.62
2.084e-03,-0.7,-0.76
2.086e-03,-0.64,-0.56
2.088e-03,-0.6,-0.72
2.090e-03,-0.68,-0.58
2.092e-03,-0.64,-0.82
2.094e-03,-0.8,-0.62
2.096e-03,-0.64,-0.72
2.098e-03,-0.66,-0.52
2.100e-03,-0.54,-0.68
2.101e-03,-0.64,-0.5
2.103e-03,-0.6,-0.74
2.105e-03,-0.66,-0.56
2.107e-03,-0.7,-0.8
2.109e-03,-0.72,-0.64
2.111e-03,-0.7,-0.76
2.113e-03,-0.66,-0.6
2.115e-03,-0.66,-0.7
2.117e-03,-0.62,-0.56
2.119e-03,-0.72,-0.78
2.121e-03,-0.66,-0.62
2.123e-03,-0.74,-0.78
2.125e-03,-0.68,-0.62
2.126e-03,-0.7,-0.74
2.128e-03,-0.64,-0.6
2.130e-03,-0.68,-0.74
2.132e-03,-0.62,-0.58
2.134e-03,-0.66,-0.74
2.136e-03,-0.66,-0.58
2.138e-03,-0.66,-0.84
2.140e-03,-0.78,-0.64
2.142e-03,-0.76,-0.84
2.144e-03,-0.78,-0.66
2.146e-03,-0.66,-0.8
2.148e-03,-0.74,-0.64
2.149e-03,-0.7,-0.78
2.151e-03,-0.68,-0.56
2.153e-03,-0.6,-0.74
2.155e-03,-0.66,-0.56
2.157e-03,-0.64,-0.7
2.159e-03,-0.62,-0.56
2.161e-03,-0.64,-0.68
2.163e-03,-0.56,-0.52
2.165e-03,-0.66,-0.72
2.167e-03,-0.56,-0.52
2.169e-03,-0.62,-0.64
2.171e-03,-0.5,-0.46
2.173e-03,-0.6,-0.68
2.174e-03,-0.54,-0.5
2.176e-03,-0.66,-0.82
2.178e-03,-0.7,-0.58
2.180e-03,-0.76,-0.8
2.182e-03,-0.7,-0.6
2.184e-03,-0.64,-0.74
2.186e-03,-0.7,-0.6
2.188e-03,-0.62,-0.82
2.190e-03,-0.72,-0.6
2.192e-03,-0.7,-0.86
2.194e-03,-0.82,-0.68
2.196e-03,-0.7,-0.78
2.197e-03,-0.72,-0.62
2.199e-03,-0.64,-0.7
2.201e-03,-0.62,-0.52
2.203e-03,-0.62,-0.7
2.205e-03,-0.58,-0.48
2.207e-03,-0.54,-0.74
2.209e-03,-0.64,-0.5
2.211e-03,-0.72,-0.82
2.213e-03,-0.74,-0.64
2.215e-03,-0.7,-0.74
2.217e-03,-0.64,-0.6
2.219e-03,-0.7,-0.78
2.221e-03,-0.68,-0.62
2.222e-03,-0.74,-0.84
2.224e-03,-0.74,-0.64
2.226e-03,-0.7,-0.84
2.228e-03,-0.74,-0.66
2.230e-03,-0.74,-0.86
2.232e-03,-0.8,-0.68
2.234e-03,-0.68,-0.74
2.236e-03,-0.66,-0.56
2.238e-03,-0.56,-0.72
2.240e-03,-0.68,-0.54
2.242e-03,-0.62,-0.76
2.244e-03,-0.7,-0.58
2.245e-03,-0.66,-0.76
2.247e-03,-0.62,-0.56
2.249e-03,-0.56,-0.64
2.251e-03,-0.52,-0.44
2.253e-03,-0.58,-0.68
2.255e-03,-0.58,-0.52
2.257e-03,-0.66,-0.72
2.259e-03,-0.64,-0.56
2.261e-03,-0.64,-0.72
2.263e-03,-0.6,-0.54
2.265e-03,-0.7,-0.74
2.267e-03,-0.6,-0.56
2.269e-03,-0.64,-0.68
2.270e-03,-0.58,-0.54
2.272e-03,-0.66,-0.72
2.274e-03,-0.62,-0.58
2.276e-03,-0.7,-0.72
2.278e-03,-0.62,-0.5
2.280e-03,-0.56,-0.62
2.282e-03,-0.58,-0.48
2.284e-03,-0.52,-0.7
2.286e-03,-0.58,-0.46
2.288e-03,-0.62,-0.74
2.290e-03,-0.72,-0.6
2.292e-03,-0.64,-0.72
2.294e-03,-0.68,-0.56
2.295e-03,-0.58,-0.68
2.297e-03,-0.62,-0.52
2.299e-03,-0.54,-0.72
2.301e-03,-0.6,-0.5
2.303e-03,-0.68,-0.74
2.305e-03,-0.62,-0.6
2.307e-03,-0.7,-0.8
2.309e-03,-0.68,-0.62
2.311e-03,-0.72,-0.84
2.313e-03,-0.74,-0.66
2.315e-03,-0.8,-0.84
2.317e-03,-0.72,-0.6
2.318e-03,-0.66,-0.72
2.320e-03,-0.62,-0.58
2.322e-03,-0.64,-0.74
2.324e-03,-0.66,-0.58
2.326e-03,-0.62,-0.76
2.328e-03,-0.66,-0.56
2.330e-03,-0.7,-0.76
2.332e-03,-0.72,-0.62
2.334e-03,-0.64,-0.74
2.336e-03,-0.7,-0.58
2.338e-03,-0.6,-0.72
2.340e-03,-0.68,-0.56
2.342e-03,-0.62,-0.8
2.343e-03,-0.74,-0.6
2.345e-03,-0.64,-0.74
2.347e-03,-0.6,-0.54
2.349e-03,-0.68,-0.76
2.351e-03,-0.7,-0.6
2.353e-03,-0.68,-0.76
2.355e-03,-0.68,-0.62
2.357e-03,-0.68,-0.72
2.359e-03,-0.62,-0.58
2.361e-03,-0.64,-0.76
2.363e-03,-0.62,-0.54
2.365e-03,-0.74,-0.78
2.366e-03,-0.68,-0.64
2.368e-03,-0.74,-0.78
2.370e-03,-0.72,-0.62
2.372e-03,-0.7,-0.74
2.374e-03,-0.64,-0.6
2.376e-03,-0.66,-0.76
2.378e-03,-0.66,-0.58
2.380e-03,-0.72,-0.82
2.382e-03,-0.76,-0.66
2.384e-03,-0.72,-0.84
2.386e-03,-0.72,-0.64
2.388e-03,-0.74,-0.86
2.390e-03,-0.82,-0.62
2.391e-03,-0.64,-0.8
2.393e-03,-0.76,-0.58
2.395e-03,-0.6,-0.72
2.397e-03,-0.68,-0.54
2.399e-03,-0.62,-0.76
2.401e-03,-0.64,-0.58
2.403e-03,-0.7,-0.78
2.405e-03,-0.7,-0.62
2.407e-03,-0.7,-0.76
2.409e-03,-0.66,-0.52
2.411e-03,-0.64,-0.8
2.413e-03,-0.66,-0.54
2.414e-03,-0.78,-0.82
2.416e-03,-0.7,-0.68
2.418e-03,-0.76,-0.8
2.420e-03,-0.64,-0.56
2.422e-03,-0.62,-0.84
2.424e-03,-0.68,-0.58
2.426e-03,-0.8,-0.84
2.428e-03,-0.74,-0.56
2.430e-03,-0.6,-0.68
2.432e-03,-0.62,-0.54
2.434e-03,-0.58,-0.72
2.436e-03,-0.66,-0.56
2.438e-03,-0.6,-0.72
2.439e-03,-0.62,-0.54
2.441e-03,-0.62,-0.7
2.443e-03,-0.68,-0.58
2.445e-03,-0.62,-0.7
2.447e-03,-0.64,-0.54
2.449e-03,-0.58,-0.7
2.451e-03,-0.6,-0.52
2.453e-03,-0.64,-0.72
2.455e-03,-0.56,-0.46
2.457e-03,-0.52,-0.62
2.459e-03,-0.5,-0.46
2.461e-03,-0.54,-0.7
2.462e-03,-0.58,-0.46
2.464e-03,-0.7,-0.78
2.466e-03,-0.68,-0.64
2.468e-03,-0.72,-0.84
2.470e-03,-0.76,-0.64
2.472e-03,-0.7,-0.78
2.474e-03,-0.7,-0.62
2.476e-03,-0.7,-0.78
2.478e-03,-0.72,-0.62
2.480e-03,-0.66,-0.74
2.482e-03,-0.64,-0.52
2.484e-03,-0.52,-0.7
2.486e-03,-0.66,-0.5
2.487e-03,-0.58,-0.7
2.489e-03,-0.66,-0.48
2.491e-03,-0.48,-0.64
2.493e-03,-0.58,-0.48
2.495e-03,-0.54,-0.72
2.497e-03,-0.64,-0.52
2.499e-03,-0.54,-0.64
2.501e-03,-0.5,-0.46
2.503e-03,-0.6,-0.66
2.505e-03,-0.6,-0.54
2.507e-03,-0.64,-0.8
2.509e-03,-0.7,-0.6
2.510e-03,-0.72,-0.76
2.512e-03,-0.64,-0.6
2.514e-03,-0.7,-0.82
2.516e-03,-0.68,-0.6
2.518e-03,-0.76,-0.8
2.520e-03,-0.6,-0.58
2.522e-03,-0.66,-0.78
2.524e-03,-0.74,-0.6
2.526e-03,-0.7,-0.74
2.528e-03,-0.7,-0.6
2.530e-03,-0.64,-0.82
2.532e-03,-0.68,-0.58
2.534e-03,-0.74,-0.84
2.535e-03,-0.76,-0.68
2.537e-03,-0.68,-0.84
2.539e-03,-0.78,-0.64
2.541e-03,-0.72,-0.78
2.543e-03,-0.72,-0.58
2.545e-03,-0.62,-0.7
2.547e-03,-0.66,-0.58
2.549e-03,-0.64,-0.74
2.551e-03,-0.68,-0.58
2.553e-03,-0.64,-0.72
2.555e-03,-0.62,-0.56
2.557e-03,-0.62,-0.74
2.558e-03,-0.6,-0.56
2.560e-03,-0.74,-0.76
2.562e-03,-0.64,-0.6
2.564e-03,-0.66,-0.7
2.566e-03,-0.58,-0.56
2.568e-03,-0.66,-0.76
2.570e-03,-0.62,-0.58
2.572e-03,-0.68,-0.82
2.574e-03,-0.7,-0.62
2.576e-03,-0.76,-0.82
2.578e-03,-0.7,-0.64
2.580e-03,-0.68,-0.82
2.582e-03,-0.78,-0.62
2.583e-03,-0.62,-0.84
2.585e-03,-0.82,-0.6
2.587e-03,-0.72,-0.82
2.589e-03,-0.66,-0.56
2.591e-03,-0.62,-0.74
2.593e-03,-0.68,-0.58
2.595e-03,-0.62,-0.74
2.597e-03,-0.66,-0.6
2.599e-03,-0.68,-0.88
2.601e-03,-0.8,-0.64
2.603e-03,-0.8,-0.84
2.605e-03,-0.76,-0.66
2.606e-03,-0.76,-0.78
2.608e-03,-0.68,-0.64
2.610e-03,-0.72,-0.76
2.612e-03,-0.62,-0.52
2.614e-03,-0.62,-0.7
2.616e-03,-0.62,-0.56
2.618e-03,-0.7,-0.76
2.620e-03,-0.66,-0.62
2.622e-03,-0.72,-0.74
2.624e-03,-0.64,-0.48
2.626e-03,-0.52,-0.64
2.628e-03,-0.52,-0.44
2.630e-03,-0.58,-0.66
2.631e-03,-0.62,-0.52
2.633e-03,-0.54,-0.7
2.635e-03,-0.66,-0.52
2.637e-03,-0.6,-0.78
2.639e-03,-0.72,-0.6
2.641e-03,-0.72,-0.78
2.643e-03,-0.68,-0.56
2.645e-03,-0.6,-0.68
2.647e-03,-0.56,-0.48
2.649e-03,-0.6,-0.7
2.651e-03,-0.58,-0.54
2.653e-03,-0.66,-0.76
2.654e-03,-0.68,-0.6
2.656e-03,-0.72,-0.78
2.658e-03,-0.68,-0.6
2.660e-03,-0.72,-0.74
2.662e-03,-0.6,-0.56
2.664e-03,-0.7,-0.7
2.666e-03,-0.56,-0.54
2.668e-03,-0.6,-0.74
2.670e-03,-0.62,-0.54
2.672e-03,-0.68,-0.9
2.674e-03,-0.82,-0.66
2.676e-03,-0.82,-0.88
2.678e-03,-0.78,-0.68
2.679e-03,-0.72,-0.82
2.681e-03,-0.74,-0.66
2.683e-03,-0.68,-0.82
2.685e-03,-0.78,-0.64
2.687e-03,-0.74,-0.9
2.689e-03,-0.86,-0.64
2.691e-03,-0.66,-0.82
2.693e-03,-0.76,-0.62
2.695e-03,-0.74,-0.8
2.697e-03,-0.76,-0.68
2.699e-03,-0.72,-0.76
2.701e-03,-0.62,-0.54
2.702e-03,-0.66,-0.7
2.704e-03,-0.62,-0.58
2.706e-03,-0.66,-0.7
2.708e-03,-0.56,-0.52
2.710e-03,-0.66,-0.78
2.712e-03,-0.64,-0.6
2.714e-03,-0.74,-0.76
2.716e-03,-0.62,-0.58
2.718e-03,-0.64,-0.7
2.720e-03,-0.62,-0.56
2.722e-03,-0.66,-0.76
2.724e-03,-0.68,-0.6
2.726e-03,-0.68,-0.82
2.727e-03,-0.68,-0.62
2.729e-03,-0.76,-0.84
2.731e-03,-0.76,-0.68
2.733e-03,-0.76,-0.86
2.735e-03,-0.76,-0.64
2.737e-03,-0.72,-0.86
2.739e-03,-0.82,-0.7
2.741e-03,-0.78,-0.86
2.743e-03,-0.76,-0.68
2.745e-03,-0.72,-0.8
2.747e-03,-0.72,-0.66
2.749e-03,-0.7,-0.76
2.750e-03,-0.62,-0.58
2.752e-03,-0.64,-0.72
2.754e-03,-0.62,-0.58
2.756e-03,-0.72,-0.76
2.758e-03,-0.66,-0.6
2.760e-03,-0.7,-0.74
2.762e-03,-0.62,-0.6
2.764e-03,-0.7,-0.8
2.766e-03,-0.62,-0.6
2.768e-03,-0.76,-0.86
2.770e-03,-0.74,-0.66
2.772e-03,-0.7,-0.78
2.774e-03,-0.72,-0.64
2.775e-03,-0.68,-0.78
2.777e-03,-0.74,-0.66
2.779e-03,-0.7,-0.84
2.781e-03,-0.72,-0.6
2.783e-03,-0.76,-0.84
2.785e-03,-0.78,-0.66
2.787e-03,-0.7,-0.78
2.789e-03,-0.76,-0.66
2.791e-03,-0.72,-0.86
2.793e-03,-0.82,-0.68
2.795e-03,-0.74,-0.82
2.797e-03,-0.7,-0.6
2.798e-03,-0.68,-0.76
2.800e-03,-0.66,-0.62
2.802e-03,-0.72,-0.74
2.804e-03,-0.62,-0.56
2.806e-03,-0.68,-0.78
2.808e-03,-0.6,-0.6
2.810e-03,-0.76,-0.8
2.812e-03,-0.68,-0.66
2.814e-03,-0.8,-0.86
2.816e-03,-0.74,-0.66
2.818e-03,-0.72,-0.78
2.820e-03,-0.68,-0.62
2.822e-03,-0.72,-0.78
2.823e-03,-0.68,-0.56
2.825e-03,-0.62,-0.7
2.827e-03,-0.64,-0.56
2.829e-03,-0.6,-0.74
2.831e-03,-0.7,-0.58
2.833e-03,-0.64,-0.72
2.835e-03,-0.64,-0.52
2.837e-03,-0.52,-0.72
2.839e-03,-0.64,-0.52
2.841e-03,-0.64,-0.74
2.843e-03,-0.66,-0.56
2.845e-03,-0.6,-0.66
2.846e-03,-0.54,-0.46
2.848e-03,-0.54,-0.76
2.850e-03,-0.58,-0.5
2.852e-03,-0.76,-0.84
2.854e-03,-0.76,-0.72
2.856e-03,-0.82,-0.88
2.858e-03,-0.76,-0.66
2.860e-03,-0.72,-0.82
2.862e-03,-0.68,-0.66
2.864e-03,-0.8,-0.86
2.866e-03,-0.78,-0.72
2.868e-03,-0.8,-0.86
2.870e-03,-0.76,-0.7
2.871e-03,-0.8,-0.92
2.873e-03,-0.88,-0.74
2.875e-03,-0.76,-0.9
2.877e-03,-0.86,-0.72
2.879e-03,-0.82,-0.9
2.881e-03,-0.8,-0.66
2.883e-03,-0.66,-0.8
2.885e-03,-0.72,-0.6
2.887e-03,-0.7,-0.86
2.889e-03,-0.8,-0.66
2.891e-03,-0.8,-0.86
2.893e-03,-0.78,-0.7
2.895e-03,-0.76,-0.82
2.896e-03,-0.76,-0.68
2.898e-03,-0.78,-0.9
2.900e-03,-0.78,-0.7
2.902e-03,-0.86,-0.9
2.904e-03,-0.76,-0.72
2.906e-03,-0.82,-0.84
2.908e-03,-0.64,-0.64
2.910e-03,-0.76,-0.84
2.912e-03,-0.72,-0.68
2.914e-03,-0.78,-0.8
2.916e-03,-0.66,-0.58
2.918e-03,-0.64,-0.68
2.919e-03,-0.56,-0.48
2.921e-03,-0.52,-0.74
2.923e-03,-0.62,-0.46
2.925e-03,-0.66,-0.76
2.927e-03,-0.72,-0.62
2.929e-03,-0.64,-0.74
2.931e-03,-0.7,-0.58
2.933e-03,-0.6,-0.74
2.935e-03,-0.7,-0.58
2.937e-03,-0.6,-0.76
2.939e-03,-0.66,-0.58
2.941e-03,-0.7,-0.76
2.943e-03,-0.66,-0.6
2.944e-03,-0.68,-0.86
2.946e-03,-0.78,-0.64
2.948e-03,-0.78,-0.84
2.950e-03,-0.74,-0.68
2.952e-03,-0.8,-0.84
2.954e-03,-0.74,-0.7
2.956e-03,-0.8,-0.86
2.958e-03,-0.76,-0.68
2.960e-03,-0.74,-0.8
2.962e-03,-0.68,-0.66
2.964e-03,-0.74,-0.8
2.966e-03,-0.66,-0.6
2.967e-03,-0.78,-0.82
2.969e-03,-0.68,-0.56
2.971e-03,-0.64,-0.78
2.973e-03,-0.72,-0.62
2.975e-03,-0.7,-0.78
2.977e-03,-0.7,-0.62
2.979e-03,-0.64,-0.74
2.981e-03,-0.66,-0.58
2.983e-03,-0.58,-0.74
2.985e-03,-0.62,-0.52
2.987e-03,-0.68,-0.84
2.989e-03,-0.76,-0.64
2.991e-03,-0.68,-0.78
2.992e-03,-0.72,-0.64
2.994e-03,-0.72,-0.84
2.996e-03,-0.78,-0.7
2.998e-03,-0.8,-0.88
3.000e-03,-0.76,-0.64
3.002e-03,-0.72,-0.74
3.004e-03,-0.6,-0.56
3.006e-03,-0.7,-0.78
3.008e-03,-0.58,-0.58
3.010e-03,-0.76,-0.8
3.012e-03,-0.66,-0.66
3.014e-03,-0.72,-0.76
3.015e-03,-0.66,-0.6
3.017e-03,-0.68,-0.76
3.019e-03,-0.66,-0.6
3.021e-03,-0.66,-0.76
3.023e-03,-0.7,-0.62
3.025e-03,-0.62,-0.7
3.027e-03,-0.62,-0.54
3.029e-03,-0.64,-0.78
3.031e-03,-0.74,-0.6
3.033e-03,-0.62,-0.78
3.035e-03,-0.7,-0.58
3.037e-03,-0.68,-0.76
3.039e-03,-0.7,-0.62
3.040e-03,-0.66,-0.82
3.042e-03,-0.76,-0.62
3.044e-03,-0.76,-0.82
3.046e-03,-0.7,-0.66
3.048e-03,-0.8,-0.82
3.050e-03,-0.66,-0.62
3.052e-03,-0.7,-0.76
3.054e-03,-0.66,-0.6
3.056e-03,-0.68,-0.76
3.058e-03,-0.68,-0.6
3.060e-03,-0.74,-0.84
3.062e-03,-0.74,-0.66
3.063e-03,-0.82,-0.84
3.065e-03,-0.74,-0.7
3.067e-03,-0.78,-0.82
3.069e-03,-0.64,-0.54
3.071e-03,-0.58,-0.68
3.073e-03,-0.64,-0.54
3.075e-03,-0.58,-0.76
3.077e-03,-0.72,-0.54
3.079e-03,-0.64,-0.74
3.081e-03,-0.7,-0.56
3.083e-03,-0.6,-0.74
3.085e-03,-0.68,-0.58
3.087e-03,-0.6,-0.74
3.088e-03,-0.66,-0.58
3.090e-03,-0.68,-0.78
3.092e-03,-0.68,-0.6
3.094e-03,-0.72,-0.9
3.096e-03,-0.78,-0.68
3.098e-03,-0.88,-0.92
3.100e-03,-0.8,-0.7
3.102e-03,-0.78,-0.8
3.104e-03,-0.64,-0.52
3.106e-03,-0.58,-0.64
3.108e-03,-0.54,-0.5
3.110e-03,-0.58,-0.72
3.111e-03,-0.64,-0.54
3.113e-03,-0.6,-0.74
3.115e-03,-0.62,-0.56
3.117e-03,-0.64,-0.74
3.119e-03,-0.66,-0.56
3.121e-03,-0.56,-0.7
3.123e-03,-0.66,-0.54
3.125e-03,-0.6,-0.7
3.127e-03,-0.6,-0.52
3.129e-03,-0.6,-0.76
3.131e-03,-0.72,-0.58
3.133e-03,-0.66,-0.8
3.135e-03,-0.72,-0.64
3.136e-03,-0.7,-0.8
3.138e-03,-0.74,-0.68
3.140e-03,-0.76,-0.82
3.142e-03,-0.66,-0.58
3.144e-03,-0.66,-0.7
3.146e-03,-0.56,-0.52
3.148e-03,-0.66,-0.72
3.150e-03,-0.64,-0.58
3.152e-03,-0.7,-0.74
3.154e-03,-0.62,-0.6
3.156e-03,-0.66,-0.7
3.158e-03,-0.6,-0.54
3.159e-03,-0.7,-0.76
3.161e-03,-0.66,-0.58
3.163e-03,-0.68,-0.74
3.165e-03,-0.66,-0.6
3.167e-03,-0.7,-0.78
3.169e-03,-0.72,-0.64
3.171e-03,-0.66,-0.7
3.173e-03,-0.62,-0.56
3.175e-03,-0.6,-0.76
3.177e-03,-0.68,-0.54
3.179e-03,-0.7,-0.86
3.181e-03,-0.82,-0.68
3.183e-03,-0.72,-0.8
3.184e-03,-0.72,-0.62
3.186e-03,-0.66,-0.74
3.188e-03,-0.68,-0.54
3.190e-03,-0.6,-0.76
3.192e-03,-0.62,-0.54
3.194e-03,-0.74,-0.82
3.196e-03,-0.72,-0.68
3.198e-03,-0.8,-0.9
3.200e-03,-0.8,-0.74
3.202e-03,-0.86,-0.88
3.204e-03,-0.72,-0.58
3.206e-03,-0.7,-0.86
3.207e-03,-0.7,-0.66
3.209e-03,-0.78,-0.84
3.211e-03,-0.76,-0.66
3.213e-03,-0.72,-0.78
3.215e-03,-0.7,-0.62
3.217e-03,-0.68,-0.76
3.219e-03,-0.72,-0.62
3.221e-03,-0.64,-0.82
3.223e-03,-0.78,-0.64
3.225e-03,-0.66,-0.74
3.227e-03,-0.66,-0.58
3.229e-03,-0.66,-0.8
3.231e-03,-0.68,-0.58
3.232e-03,-0.74,-0.82
3.234e-03,-0.78,-0.66
3.236e-03,-0.68,-0.76
3.238e-03,-0.7,-0.62
3.240e-03,-0.68,-0.78
3.242e-03,-0.72,-0.62
3.244e-03,-0.72,-0.82
3.246e-03,-0.7,-0.66
3.248e-03,-0.76,-0.84
3.250e-03,-0.76,-0.66
3.252e-03,-0.72,-0.82
3.254e-03,-0.7,-0.64
3.255e-03,-0.76,-0.9
3.257e-03,-0.74,-0.68
3.259e-03,-0.86,-0.9
3.261e-03,-0.74,-0.64
3.263e-03,-0.7,-0.76
3.265e-03,-0.7,-0.64
3.267e-03,-0.68,-0.76
3.269e-03,-0.66,-0.6
3.271e-03,-0.68,-0.82
3.273e-03,-0.74,-0.64
3.275e-03,-0.74,-0.88
3.277e-03,-0.86,-0.72
3.279e-03,-0.72,-0.84
3.280e-03,-0.78,-0.7
3.282e-03,-0.7,-0.82
3.284e-03,-0.72,-0.68
3.286e-03,-0.72,-0.78
3.288e-03,-0.7,-0.6
3.290e-03,-0.64,-0.7
3.292e-03,-0.58,-0.52
3.294e-03,-0.66,-0.72
3.296e-03,-0.62,-0.54
3.298e-03,-0.66,-0.7
3.300e-03,-0.6,-0.52
3.302e-03,-0.6,-0.76
3.303e-03,-0.6,-0.52
3.305e-03,-0.7,-0.76
3.307e-03,-0.62,-0.6
3.309e-03,-0.72,-0.76
3.311e-03,-0.68,-0.64
3.313e-03,-0.68,-0.76
3.315e-03,-0.7,-0.6
3.317e-03,-0.62,-0.7
3.319e-03,-0.68,-0.56
3.321e-03,-0.58,-0.7
3.323e-03,-0.66,-0.56
3.325e-03,-0.58,-0.8
3.327e-03,-0.72,-0.56
3.328e-03,-0.74,-0.88
3.330e-03,-0.86,-0.72
3.332e-03,-0.78,-0.84
3.334e-03,-0.74,-0.64
3.336e-03,-0.68,-0.76
3.338e-03,-0.62,-0.54
3.340e-03,-0.62,-0.76
3.342e-03,-0.68,-0.58
3.344e-03,-0.72,-0.82
3.346e-03,-0.72,-0.66
3.348e-03,-0.78,-0.8
3.350e-03,-0.68,-0.66
3.351e-03,-0.78,-0.92
3.353e-03,-0.78,-0.7
3.355e-03,-0.9,-0.94
3.357e-03,-0.82,-0.74
3.359e-03,-0.78,-0.84
3.361e-03,-0.7,-0.62
3.363e-03,-0.7,-0.76
3.365e-03,-0.62,-0.44
3.367e-03,-0.5,-0.78
3.369e-03,-0.66,-0.48
3.371e-03,-0.7,-0.9
3.373e-03,-0.78,-0.68
3.375e-03,-0.8,-0.86
3.376e-03,-0.8,-0.68
3.378e-03,-0.68,-0.78
3.380e-03,-0.74,-0.66
3.382e-03,-0.7,-0.8
3.384e-03,-0.7,-0.64
3.386e-03,-0.68,-0.76
3.388e-03,-0.68,-0.64
3.390e-03,-0.7,-0.78
3.392e-03,-0.66,-0.64
3.394e-03,-0.72,-0.8
3.396e-03,-0.72,-0.62
3.398e-03,-0.7,-0.78
3.399e-03,-0.66,-0.62
3.401e-03,-0.72,-0.76
3.403e-03,-0.64,-0.52
3.405e-03,-0.58,-0.64
3.407e-03,-0.52,-0.46
3.409e-03,-0.64,-0.86
3.411e-03,-0.7,-0.56
3.413e-03,-0.78,-0.94
3.415e-03,-0.88,-0.76
3.417e-03,-0.88,-0.94
3.419e-03,-0.82,-0.66
3.421e-03,-0.7,-0.86
3.423e-03,-0.8,-0.66
3.424e-03,-0.66,-0.72
3.426e-03,-0.66,-0.56
3.428e-03,-0.58,-0.74
3.430e-03,-0.7,-0.54
3.432e-03,-0.62,-0.68
3.434e-03,-0.54,-0.48
3.436e-03,-0.58,-0.82
3.438e-03,-0.68,-0.56
3.440e-03,-0.78,-0.84
3.442e-03,-0.78,-0.72
3.444e-03,-0.78,-0.82
3.446e-03,-0.68,-0.64
3.447e-03,-0.74,-0.76
3.449e-03,-0.64,-0.6
3.451e-03,-0.66,-0.76
3.453e-03,-0.66,-0.58
3.455e-03,-0.68,-0.82
3.457e-03,-0.72,-0.62
3.459e-03,-0.74,-0.84
3.461e-03,-0.74,-0.68
3.463e-03,-0.78,-0.88
3.465e-03,-0.86,-0.74
3.467e-03,-0.78,-0.84
3.469e-03,-0.76,-0.64
3.471e-03,-0.68,-0.78
3.472e-03,-0.76,-0.64
3.474e-03,-0.66,-0.74
3.476e-03,-0.68,-0.6
3.478e-03,-0.66,-0.82
3.480e-03,-0.8,-0.64
3.482e-03,-0.72,-0.86
3.484e-03,-0.74,-0.64
3.486e-03,-0.8,-0.86
3.488e-03,-0.72,-0.68
3.490e-03,-0.78,-0.82
3.492e-03,-0.66,-0.62
3.494e-03,-0.72,-0.76
3.495e-03,-0.66,-0.6
3.497e-03,-0.68,-0.74
3.499e-03,-0.6,-0.58
3.501e-03,-0.66,-0.7
3.503e-03,-0.6,-0.54
3.505e-03,-0.64,-0.78
3.507e-03,-0.66,-0.56
3.509e-03,-0.74,-0.76
3.511e-03,-0.64,-0.58
3.513e-03,-0.62,-0.7
3.515e-03,-0.62,-0.56
3.517e-03,-0.62,-0.78
3.519e-03,-0.7,-0.58
3.520e-03,-0.72,-0.82
3.522e-03,-0.72,-0.62
3.524e-03,-0.66,-0.76
3.526e-03,-0.72,-0.58
3.528e-03,-0.6,-0.8
3.530e-03,-0.64,-0.54
3.532e-03,-0.72,-0.78
3.534e-03,-0.64,-0.6
3.536e-03,-0.68,-0.8
3.538e-03,-0.72,-0.66
3.540e-03,-0.78,-0.92
3.542e-03,-0.76,-0.72
3.544e-03,-0.9,-0.92
3.545e-03,-0.74,-0.68
3.547e-03,-0.76,-0.78
3.549e-03,-0.6,-0.58
3.551e-03,-0.68,-0.74
3.553e-03,-0.58,-0.54
3.555e-03,-0.64,-0.84
3.557e-03,-0.68,-0.6
3.559e-03,-0.78,-0.84
3.561e-03,-0.68,-0.6
3.563e-03,-0.64,-0.74
3.565e-03,-0.68,-0.6
3.567e-03,-0.64,-0.78
3.568e-03,-0.74,-0.6
3.570e-03,-0.68,-0.84
3.572e-03,-0.8,-0.62
3.574e-03,-0.7,-0.8
3.576e-03,-0.78,-0.68
3.578e-03,-0.72,-0.84
3.580e-03,-0.8,-0.64
3.582e-03,-0.68,-0.72
3.584e-03,-0.64,-0.54
3.586e-03,-0.6,-0.8
3.588e-03,-0.66,-0.56
3.590e-03,-0.78,-0.82
3.592e-03,-0.74,-0.66
3.593e-03,-0.72,-0.76
3.595e-03,-0.62,-0.6
3.597e-03,-0.74,-0.82
3.599e-03,-0.74,-0.66
3.601e-03,-0.76,-0.78
3.603e-03,-0.68,-0.6
3.605e-03,-0.68,-0.7
3.607e-03,-0.64,-0.58
3.609e-03,-0.62,-0.76
3.611e-03,-0.66,-0.52
3.613e-03,-0.64,-0.78
3.615e-03,-0.66,-0.56
3.616e-03,-0.72,-0.86
3.618e-03,-0.82,-0.7
3.620e-03,-0.7,-0.8
3.622e-03,-0.76,-0.64
3.624e-03,-0.7,-0.92
3.626e-03,-0.82,-0.68
3.628e-03,-0.82,-0.88
3.630e-03,-0.78,-0.7
3.632e-03,-0.74,-0.82
3.634e-03,-0.68,-0.6
3.636e-03,-0.68,-0.74
3.638e-03,-0.66,-0.56
3.640e-03,-0.64,-0.7
3.641e-03,-0.6,-0.54
3.643e-03,-0.66,-0.72
3.645e-03,-0.6,-0.58
3.647e-03,-0.72,-0.84
3.649e-03,-0.72,-0.64
3.651e-03,-0.78,-0.88
3.653e-03,-0.78,-0.7
3.655e-03,-0.8,-0.86
3.657e-03,-0.7,-0.56
3.659e-03,-0.6,-0.7
3.661e-03,-0.62,-0.5
3.663e-03,-0.52,-0.76
3.664e-03,-0.68,-0.5
3.666e-03,-0.66,-0.78
3.668e-03,-0.72,-0.64
3.670e-03,-0.68,-0.78
3.672e-03,-0.7,-0.62
3.674e-03,-0.66,-0.78
3.676e-03,-0.74,-0.62
3.678e-03,-0.7,-0.86
3.680e-03,-0.74,-0.66
3.682e-03,-0.8,-0.88
3.684e-03,-0.74,-0.6
3.686e-03,-0.72,-0.86
3.688e-03,-0.78,-0.68
3.689e-03,-0.8,-0.84
3.691e-03,-0.66,-0.64
3.693e-03,-0.72,-0.74
3.695e-03,-0.54,-0.5
3.697e-03,-0.64,-0.74
3.699e-03,-0.62,-0.58
3.701e-03,-0.7,-0.78
3.703e-03,-0.68,-0.62
3.705e-03,-0.74,-0.78
3.707e-03,-0.7,-0.64
3.709e-03,-0.74,-0.82
3.711e-03,-0.76,-0.68
3.712e-03,-0.7,-0.84
3.714e-03,-0.74,-0.64
3.716e-03,-0.76,-0.86
3.718e-03,-0.8,-0.7
3.720e-03,-0.74,-0.82
3.722e-03,-0.78,-0.66
3.724e-03,-0.66,-0.8
3.726e-03,-0.74,-0.6
3.728e-03,-0.62,-0.78
3.730e-03,-0.64,-0.56
3.732e-03,-0.72,-0.78
3.734e-03,-0.64,-0.58
3.736e-03,-0.66,-0.72
3.737e-03,-0.56,-0.54
3.739e-03,-0.7,-0.78
3.741e-03,-0.66,-0.62
3.743e-03,-0.74,-0.8
3.745e-03,-0.7,-0.66
3.747e-03,-0.76,-0.86
3.749e-03,-0.78,-0.7
3.751e-03,-0.8,-0.82
3.753e-03,-0.68,-0.64
3.755e-03,-0.7,-0.8
3.757e-03,-0.72,-0.62
3.759e-03,-0.68,-0.76
3.760e-03,-0.62,-0.54
3.762e-03,-0.66,-0.8
3.764e-03,-0.76,-0.64
3.766e-03,-0.72,-0.82
3.768e-03,-0.78,-0.64
3.770e-03,-0.66,-0.76
3.772e-03,-0.68,-0.56
3.774e-03,-0.64,-0.76
3.776e-03,-0.7,-0.58
3.778e-03,-0.6,-0.76
3.780e-03,-0.66,-0.56
3.782e-03,-0.72,-0.78
3.784e-03,-0.7,-0.64
3.785e-03,-0.72,-0.76
3.787e-03,-0.66,-0.62
3.789e-03,-0.7,-0.76
3.791e-03,-0.64,-0.6
3.793e-03,-0.7,-0.7
3.795e-03,-0.58,-0.56
3.797e-03,-0.66,-0.74
3.799e-03,-0.64,-0.6
3.801e-03,-0.66,-0.72
3.803e-03,-0.56,-0.54
3.805e-03,-0.66,-0.74
3.807e-03,-0.68,-0.6
3.808e-03,-0.68,-0.8
3.810e-03,-0.76,-0.62
3.812e-03,-0.68,-0.82
3.814e-03,-0.76,-0.64
3.816e-03,-0.7,-0.8
3.818e-03,-0.78,-0.64
3.820e-03,-0.62,-0.76
3.822e-03,-0.66,-0.58
3.824e-03,-0.68,-0.78
3.826e-03,-0.72,-0.66
3.828e-03,-0.7,-0.78
3.830e-03,-0.62,-0.58
3.832e-03,-0.74,-0.86
3.833e-03,-0.78,-0.7
3.835e-03,-0.82,-0.86
3.837e-03,-0.7,-0.68
3.839e-03,-0.8,-0.86
3.841e-03,-0.74,-0.7
3.843e-03,-0.76,-0.8
3.845e-03,-0.62,-0.56
3.847e-03,-0.68,-0.72
3.849e-03,-0.64,-0.58
3.851e-03,-0.68,-0.74
3.853e-03,-0.6,-0.56
3.855e-03,-0.7,-0.76
3.856e-03,-0.7,-0.6
3.858e-03,-0.66,-0.8
3.860e-03,-0.78,-0.62
3.862e-03,-0.72,-0.84
3.864e-03,-0.82,-0.7
3.866e-03,-0.7,-0.84
3.868e-03,-0.8,-0.7
3.870e-03,-0.7,-0.8
3.872e-03,-0.66,-0.56
3.874e-03,-0.6,-0.68
3.876e-03,-0.62,-0.52
3.878e-03,-0.58,-0.78
3.880e-03,-0.66,-0.54
3.881e-03,-0.72,-0.78
3.883e-03,-0.72,-0.62
3.885e-03,-0.72,-0.9
3.887e-03,-0.76,-0.66
3.889e-03,-0.86,-0.88
3.891e-03,-0.78,-0.68
3.893e-03,-0.76,-0.8
3.895e-03,-0.68,-0.68
3.897e-03,-0.76,-0.8
3.899e-03,-0.72,-0.62
3.901e-03,-0.66,-0.76
3.903e-03,-0.66,-0.62
3.904e-03,-0.66,-0.78
3.906e-03,-0.7,-0.6
3.908e-03,-0.64,-0.8
3.910e-03,-0.74,-0.62
3.912e-03,-0.72,-0.86
3.914e-03,-0.8,-0.68
3.916e-03,-0.76,-0.88
3.918e-03,-0.84,-0.7
3.920e-03,-0.7,-0.78
3.922e-03,-0.7,-0.52
3.924e-03,-0.54,-0.74
3.926e-03,-0.58,-0.5
3.928e-03,-0.68,-0.84
3.929e-03,-0.76,-0.64
3.931e-03,-0.72,-0.8
3.933e-03,-0.7,-0.66
3.935e-03,-0.74,-0.82
3.937e-03,-0.7,-0.64
3.939e-03,-0.74,-0.78
3.941e-03,-0.66,-0.64
3.943e-03,-0.74,-0.76
3.945e-03,-0.66,-0.62
3.947e-03,-0.76,-0.8
3.949e-03,-0.7,-0.66
3.951e-03,-0.72,-0.76
3.952e-03,-0.7,-0.62
3.954e-03,-0.66,-0.72
3.956e-03,-0.66,-0.56
3.958e-03,-0.62,-0.78
3.960e-03,-0.72,-0.58
3.962e-03,-0.68,-0.76
3.964e-03,-0.72,-0.6
3.966e-03,-0.64,-0.72
3.968e-03,-0.66,-0.56
3.970e-03,-0.66,-0.8
3.972e-03,-0.7,-0.62
3.974e-03,-0.72,-0.82
3.976e-03,-0.7,-0.54
3.977e-03,-0.6,-0.7
3.979e-03,-0.58,-0.52
3.981e-03,-0.64,-0.74
3.983e-03,-0.64,-0.58
3.985e-03,-0.7,-0.82
3.987e-03,-0.72,-0.64
3.989e-03,-0.78,-0.86
3.991e-03,-0.7,-0.64
3.993e-03,-0.84,-0.9
3.995e-03,-0.78,-0.66
3.997e-03,-0.7,-0.82
3.999e-03,-0.74,-0.64
4.000e-03,-0.66,-0.78
4.002e-03,-0.68,-0.56
4.004e-03,-0.6,-0.64
4.006e-03,-0.58,-0.5
4.008e-03,-0.52,-0.68
4.010e-03,-0.64,-0.5
4.012e-03,-0.62,-0.78
4.014e-03,-0.72,-0.6
4.016e-03,-0.68,-0.78
4.018e-03,-0.7,-0.64
4.020e-03,-0.7,-0.78
4.022e-03,-0.74,-0.64
4.024e-03,-0.66,-0.76
4.025e-03,-0.68,-0.6
4.027e-03,-0.7,-0.76
4.029e-03,-0.62,-0.6
4.031e-03,-0.72,-0.8
4.033e-03,-0.74,-0.66
4.035e-03,-0.72,-0.82
4.037e-03,-0.72,-0.66
4.039e-03,-0.76,-0.82
4.041e-03,-0.72,-0.62
4.043e-03,-0.68,-0.8
4.045e-03,-0.72,-0.58
4.047e-03,-0.74,-0.78
4.048e-03,-0.7,-0.64
4.050e-03,-0.7,-0.76
4.052e-03,-0.7,-0.62
4.054e-03,-0.7,-0.8
4.056e-03,-0.74,-0.64
4.058e-03,-0.72,-0.78
4.060e-03,-0.64,-0.52
4.062e-03,-0.56,-0.72
4.064e-03,-0.64,-0.54
4.066e-03,-0.6,-0.72
4.068e-03,-0.66,-0.56
4.070e-03,-0.6,-0.76
4.072e-03,-0.72,-0.56
4.073e-03,-0.62,-0.78
4.075e-03,-0.62,-0.56
4.077e-03,-0.74,-0.86
4.079e-03,-0.74,-0.7
4.081e-03,-0.82,-0.86
4.083e-03,-0.76,-0.72
4.085e-03,-0.76,-0.8
4.087e-03,-0.7,-0.66
4.089e-03,-0.74,-0.84
4.091e-03,-0.72,-0.66
4.093e-03,-0.72,-0.76
4.095e-03,-0.6,-0.58
4.096e-03,-0.72,-0.86
4.098e-03,-0.72,-0.66
4.100e-03,-0.8,-0.86
4.102e-03,-0.72,-0.64
4.104e-03,-0.64,-0.74
4.106e-03,-0.7,-0.6
4.108e-03,-0.66,-0.78
4.110e-03,-0.72,-0.64
4.112e-03,-0.68,-0.82
4.114e-03,-0.74,-0.62
4.116e-03,-0.74,-0.92
4.118e-03,-0.86,-0.72
4.120e-03,-0.84,-0.9
4.121e-03,-0.86,-0.7
4.123e-03,-0.74,-0.8
4.125e-03,-0.7,-0.62
4.127e-03,-0.68,-0.72
4.129e-03,-0.6,-0.52
4.131e-03,-0.58,-0.76
4.133e-03,-0.62,-0.52
4.135e-03,-0.72,-0.8
4.137e-03,-0.7,-0.62
4.139e-03,-0.74,-0.78
4.141e-03,-0.66,-0.64
4.143e-03,-0.72,-0.78
4.145e-03,-0.7,-0.6
4.146e-03,-0.64,-0.7
4.148e-03,-0.58,-0.54
4.150e-03,-0.58,-0.74
4.152e-03,-0.68,-0.54
4.154e-03,-0.66,-0.84
4.156e-03,-0.76,-0.62
4.158e-03,-0.74,-0.86
4.160e-03,-0.82,-0.7
4.162e-03,-0.7,-0.76
4.164e-03,-0.66,-0.56
4.166e-03,-0.6,-0.82
4.168e-03,-0.74,-0.6
4.169e-03,-0.72,-0.8
4.171e-03,-0.7,-0.62
4.173e-03,-0.72,-0.8
4.175e-03,-0.68,-0.56
4.177e-03,-0.66,-0.7
4.179e-03,-0.56,-0.54
4.181e-03,-0.66,-0.8
4.183e-03,-0.66,-0.58
4.185e-03,-0.76,-0.82
4.187e-03,-0.7,-0.66
4.189e-03,-0.82,-0.82
4.191e-03,-0.72,-0.68
4.193e-03,-0.76,-0.82
4.194e-03,-0.72,-0.66
4.196e-03,-0.74,-0.78
4.198e-03,-0.7,-0.62
4.200e-03,-0.68,-0.86
4.202e-03,-0.72,-0.64
4.204e-03,-0.78,-0.84
4.206e-03,-0.78,-0.68
4.208e-03,-0.7,-0.88
4.210e-03,-0.8,-0.68
4.212e-03,-0.78,-0.92
4.214e-03,-0.9,-0.76
4.216e-03,-0.82,-0.88
4.217e-03,-0.84,-0.7
4.219e-03,-0.74,-0.82
4.221e-03,-0.74,-0.64
4.223e-03,-0.72,-0.8
4.225e-03,-0.7,-0.66
4.227e-03,-0.74,-0.84
4.229e-03,-0.7,-0.64
4.231e-03,-0.78,-0.82
4.233e-03,-0.7,-0.64
4.235e-03,-0.72,-0.86
4.237e-03,-0.76,-0.64
4.239e-03,-0.84,-0.86
4.241e-03,-0.74,-0.66
4.242e-03,-0.72,-0.76
4.244e-03,-0.68,-0.62
4.246e-03,-0.72,-0.76
4.248e-03,-0.62,-0.58
4.250e-03,-0.64,-0.82
4.252e-03,-0.74,-0.6
4.254e-03,-0.66,-0.74
4.256e-03,-0.66,-0.56
4.258e-03,-0.56,-0.72
4.260e-03,-0.64,-0.54
4.262e-03,-0.62,-0.78
4.264e-03,-0.64,-0.58
4.265e-03,-0.7,-0.86
4.267e-03,-0.82,-0.68
4.269e-03,-0.7,-0.82
4.271e-03,-0.68,-0.6
4.273e-03,-0.78,-0.86
4.275e-03,-0.76,-0.7
4.277e-03,-0.78,-0.82
4.279e-03,-0.74,-0.64
4.281e-03,-0.7,-0.76
4.283e-03,-0.66,-0.56
4.285e-03,-0.62,-0.76
4.287e-03,-0.56,-0.54
4.289e-03,-0.76,-0.8
4.290e-03,-0.74,-0.66
4.292e-03,-0.74,-0.82
4.294e-03,-0.74,-0.68
4.296e-03,-0.78,-0.82
4.298e-03,-0.7,-0.64
4.300e-03,-0.72,-0.82
4.302e-03,-0.76,-0.68
4.304e-03,-0.72,-0.88
4.306e-03,-0.82,-0.68
4.308e-03,-0.78,-0.88
4.310e-03,-0.84,-0.76
4.312e-03,-0.76,-0.84
4.313e-03,-0.74,-0.64
4.315e-03,-0.74,-0.84
4.317e-03,-0.76,-0.68
4.319e-03,-0.76,-0.82
4.321e-03,-0.76,-0.6
4.323e-03,-0.64,-0.76
4.325e-03,-0.68,-0.56
4.327e-03,-0.62,-0.68
4.329e-03,-0.54,-0.5
4.331e-03,-0.6,-0.78
4.333e-03,-0.6,-0.54
4.335e-03,-0.76,-0.9
4.337e-03,-0.8,-0.68
4.338e-03,-0.84,-0.9
4.340e-03,-0.72,-0.7
4.342e-03,-0.74,-0.8
4.344e-03,-0.72,-0.66
4.346e-03,-0.72,-0.8
4.348e-03,-0.74,-0.6
4.350e-03,-0.62,-0.74
4.352e-03,-0.66,-0.58
4.354e-03,-0.64,-0.82
4.356e-03,-0.82,-0.64
4.358e-03,-0.68,-0.78
4.360e-03,-0.72,-0.64
4.361e-03,-0.68,-0.78
4.363e-03,-0.72,-0.62
4.365e-03,-0.68,-0.84
4.367e-03,-0.78,-0.62
4.369e-03,-0.66,-0.74
4.371e-03,-0.66,-0.6
4.373e-03,-0.72,-0.78
4.375e-03,-0.64,-0.62
4.377e-03,-0.76,-0.82
4.379e-03,-0.72,-0.68
4.381e-03,-0.76,-0.8
4.383e-03,-0.64,-0.62
4.385e-03,-0.76,-0.8
4.386e-03,-0.7,-0.66
4.388e-03,-0.78,-0.82
4.390e-03,-0.76,-0.64
4.392e-03,-0.76,-0.78
4.394e-03,-0.72,-0.62
4.396e-03,-0.66,-0.74
4.398e-03,-0.64,-0.56
4.400e-03,-0.66,-0.78
4.402e-03,-0.72,-0.62
4.404e-03,-0.68,-0.88
4.406e-03,-0.82,-0.66
4.408e-03,-0.78,-0.9
4.409e-03,-0.86,-0.72
4.411e-03,-0.72,-0.8
4.413e-03,-0.76,-0.64
4.415e-03,-0.7,-0.84
4.417e-03,-0.76,-0.68
4.419e-03,-0.78,-0.84
4.421e-03,-0.7,-0.62
4.423e-03,-0.7,-0.76
4.425e-03,-0.64,-0.6
4.427e-03,-0.66,-0.72
4.429e-03,-0.52,-0.5
4.431e-03,-0.66,-0.7
4.433e-03,-0.6,-0.54
4.434e-03,-0.66,-0.78
4.436e-03,-0.68,-0.6
4.438e-03,-0.72,-0.84
4.440e-03,-0.68,-0.64
4.442e-03,-0.78,-0.86
4.444e-03,-0.78,-0.64
4.446e-03,-0.66,-0.82
4.448e-03,-0.72,-0.6
4.450e-03,-0.7,-0.88
4.452e-03,-0.78,-0.66
4.454e-03,-0.8,-0.9
4.456e-03,-0.88,-0.76
4.457e-03,-0.78,-0.86
4.459e-03,-0.78,-0.66
4.461e-03,-0.68,-0.74
4.463e-03,-0.68,-0.58
4.465e-03,-0.62,-0.74
4.467e-03,-0.72,-0.6
4.469e-03,-0.64,-0.74
4.471e-03,-0.64,-0.58
4.473e-03,-0.72,-0.8
4.475e-03,-0.68,-0.64
4.477e-03,-0.8,-0.88
4.479e-03,-0.78,-0.72
4.481e-03,-0.78,-0.82
4.482e-03,-0.68,-0.66
4.484e-03,-0.8,-0.82
4.486e-03,-0.62,-0.58
4.488e-03,-0.68,-0.74
4.490e-03,-0.62,-0.58
4.492e-03,-0.68,-0.72
4.494e-03,-0.64,-0.58
4.496e-03,-0.62,-0.78
4.498e-03,-0.68,-0.6
4.500e-03,-0.7,-0.8
4.502e-03,-0.72,-0.64
4.504e-03,-0.74,-0.84
4.505e-03,-0.82,-0.7
4.507e-03,-0.72,-0.82
4.509e-03,-0.76,-0.62
4.511e-03,-0.64,-0.82
4.513e-03,-0.68,-0.62
4.515e-03,-0.78,-0.86
4.517e-03,-0.78,-0.74
4.519e-03,-0.8,-0.88
4.521e-03,-0.78,-0.74
4.523e-03,-0.86,-0.94
4.525e-03,-0.86,-0.78
4.527e-03,-0.86,-0.88
4.529e-03,-0.72,-0.68
4.530e-03,-0.74,-0.82
4.532e-03,-0.7,-0.66
4.534e-03,-0.8,-0.84
4.536e-03,-0.72,-0.7
4.538e-03,-0.8,-0.9
4.540e-03,-0.82,-0.7
4.542e-03,-0.82,-0.88
4.544e-03,-0.8,-0.72
4.546e-03,-0.78,-0.88
4.548e-03,-0.84,-0.74
4.550e-03,-0.76,-0.88
4.552e-03,-0.86,-0.74
4.553e-03,-0.72,-0.8
4.555e-03,-0.74,-0.6
4.557e-03,-0.64,-0.8
4.559e-03,-0.78,-0.6
4.561e-03,-0.72,-0.82
4.563e-03,-0.78,-0.66
4.565e-03,-0.68,-0.76
4.567e-03,-0.68,-0.6
4.569e-03,-0.66,-0.78
4.571e-03,-0.64,-0.58
4.573e-03,-0.72,-0.86
4.575e-03,-0.68,-0.6
4.577e-03,-0.82,-0.9
4.578e-03,-0.78,-0.72
4.580e-03,-0.86,-0.9
4.582e-03,-0.78,-0.7
4.584e-03,-0.74,-0.78
4.586e-03,-0.66,-0.6
4.588e-03,-0.68,-0.74
4.590e-03,-0.6,-0.58
4.592e-03,-0.68,-0.9
4.594e-03,-0.78,-0.64
4.596e-03,-0.84,-0.9
4.598e-03,-0.82,-0.68
4.600e-03,-0.7,-0.78
4.601e-03,-0.7,-0.62
4.603e-03,-0.64,-0.72
4.605e-03,-0.68,-0.58
4.607e-03,-0.6,-0.84
4.609e-03,-0.74,-0.58
4.611e-03,-0.76,-0.88
4.613e-03,-0.78,-0.7
4.615e-03,-0.78,-0.86
4.617e-03,-0.78,-0.72
4.619e-03,-0.8,-0.84
4.621e-03,-0.72,-0.64
4.623e-03,-0.74,-0.76
4.625e-03,-0.62,-0.6
4.626e-03,-0.76,-0.86
4.628e-03,-0.76,-0.68
4.630e-03,-0.8,-0.82
4.632e-03,-0.72,-0.64
4.634e-03,-0.72,-0.8
4.636e-03,-0.68,-0.62
4.638e-03,-0.72,-0.76
4.640e-03,-0.62,-0.58
4.642e-03,-0.64,-0.7
4.644e-03,-0.62,-0.52
4.646e-03,-0.58,-0.8
4.648e-03,-0.72,-0.56
4.649e-03,-0.72,-0.82
4.651e-03,-0.72,-0.6
4.653e-03,-0.62,-0.76
4.655e-03,-0.74,-0.62
4.657e-03,-0.68,-0.86
4.659e-03,-0.78,-0.64
4.661e-03,-0.76,-0.82
4.663e-03,-0.72,-0.62
4.665e-03,-0.7,-0.78
4.667e-03,-0.66,-0.6
4.669e-03,-0.66,-0.76
4.671e-03,-0.68,-0.64
4.673e-03,-0.72,-0.86
4.674e-03,-0.72,-0.66
4.676e-03,-0.82,-0.86
4.678e-03,-0.76,-0.68
4.680e-03,-0.74,-0.78
4.682e-03,-0.64,-0.62
4.684e-03,-0.68,-0.72
4.686e-03,-0.62,-0.58
4.688e-03,-0.6,-0.74
4.690e-03,-0.62,-0.54
4.692e-03,-0.68,-0.76
4.694e-03,-0.7,-0.62
4.696e-03,-0.66,-0.82
4.697e-03,-0.78,-0.64
4.699e-03,-0.7,-0.8
4.701e-03,-0.78,-0.66
4.703e-03,-0.7,-0.86
4.705e-03,-0.8,-0.66
4.707e-03,-0.72,-0.84
4.709e-03,-0.72,-0.6
4.711e-03,-0.62,-0.74
4.713e-03,-0.64,-0.58
4.715e-03,-0.68,-0.8
4.717e-03,-0.74,-0.62
4.719e-03,-0.72,-0.82
4.721e-03,-0.7,-0.68
4.722e-03,-0.74,-0.8
4.724e-03,-0.72,-0.66
4.726e-03,-0.72,-0.8
4.728e-03,-0.72,-0.66
4.730e-03,-0.74,-0.76
4.732e-03,-0.66,-0.62
4.734e-03,-0.7,-0.84
4.736e-03,-0.74,-0.64
4.738e-03,-0.8,-0.84
4.740e-03,-0.72,-0.68
4.742e-03,-0.8,-0.86
4.744e-03,-0.8,-0.7
4.745e-03,-0.74,-0.82
4.747e-03,-0.78,-0.66
4.749e-03,-0.64,-0.76
4.751e-03,-0.7,-0.6
4.753e-03,-0.68,-0.78
4.755e-03,-0.66,-0.54
4.757e-03,-0.58,-0.7
4.759e-03,-0.66,-0.54
4.761e-03,-0.6,-0.78
4.763e-03,-0.72,-0.56
4.765e-03,-0.74,-0.84
4.767e-03,-0.74,-0.68
4.769e-03,-0.74,-0.8
4.770e-03,-0.72,-0.6
4.772e-03,-0.7,-0.74
4.774e-03,-0.66,-0.62
4.776e-03,-0.7,-0.74
4.778e-03,-0.6,-0.56
4.780e-03,-0.64,-0.78
4.782e-03,-0.7,-0.58
4.784e-03,-0.74,-0.86
4.786e-03,-0.74,-0.68
4.788e-03,-0.78,-0.84
4.790e-03,-0.78,-0.7
4.792e-03,-0.74,-0.82
4.794e-03,-0.76,-0.68
4.795e-03,-0.68,-0.74
4.797e-03,-0.64,-0.52
4.799e-03,-0.54,-0.74
4.801e-03,-0.68,-0.52
4.803e-03,-0.62,-0.76
4.805e-03,-0.74,-0.6
4.807e-03,-0.6,-0.74
4.809e-03,-0.68,-0.6
4.811e-03,-0.66,-0.8
4.813e-03,-0.7,-0.62
4.815e-03,-0.74,-0.8
4.817e-03,-0.66,-0.62
4.818e-03,-0.7,-0.8
4.820e-03,-0.72,-0.64
4.822e-03,-0.76,-0.86
4.824e-03,-0.72,-0.66
4.826e-03,-0.84,-0.86
4.828e-03,-0.72,-0.66
4.830e-03,-0.74,-0.78
4.832e-03,-0.7,-0.66
4.834e-03,-0.72,-0.78
4.836e-03,-0.7,-0.64
4.838e-03,-0.68,-0.9
4.840e-03,-0.78,-0.62
4.842e-03,-0.82,-0.88
4.843e-03,-0.82,-0.74
4.845e-03,-0.82,-0.92
4.847e-03,-0.8,-0.66
4.849e-03,-0.7,-0.8
4.851e-03,-0.78,-0.66
4.853e-03,-0.64,-0.74
4.855e-03,-0.68,-0.6
4.857e-03,-0.66,-0.76
4.859e-03,-0.68,-0.6
4.861e-03,-0.6,-0.7
4.863e-03,-0.58,-0.54
4.865e-03,-0.66,-0.84
4.866e-03,-0.72,-0.6
4.868e-03,-0.8,-0.84
4.870e-03,-0.72,-0.66
4.872e-03,-0.78,-0.9
4.874e-03,-0.8,-0.7
4.876e-03,-0.82,-0.86
4.878e-03,-0.74,-0.68
4.880e-03,-0.74,-0.82
4.882e-03,-0.7,-0.68
4.884e-03,-0.78,-0.86
4.886e-03,-0.78,-0.72
4.888e-03,-0.78,-0.82
4.890e-03,-0.74,-0.62
4.891e-03,-0.64,-0.72
4.893e-03,-0.62,-0.54
4.895e-03,-0.6,-0.76
4.897e-03,-0.72,-0.58
4.899e-03,-0.64,-0.86
4.901e-03,-0.74,-0.62
4.903e-03,-0.74,-0.8
4.905e-03,-0.76,-0.62
4.907e-03,-0.66,-0.76
4.909e-03,-0.72,-0.62
4.911e-03,-0.7,-0.78
4.913e-03,-0.68,-0.56
4.914e-03,-0.62,-0.76
4.916e-03,-0.64,-0.58
4.918e-03,-0.7,-0.76
4.920e-03,-0.64,-0.6
4.922e-03,-0.74,-0.78
4.924e-03,-0.68,-0.66
4.926e-03,-0.76,-0.78
4.928e-03,-0.66,-0.62
4.930e-03,-0.72,-0.8
4.932e-03,-0.7,-0.64
4.934e-03,-0.68,-0.78
4.936e-03,-0.6,-0.56
4.938e-03,-0.72,-0.86
4.939e-03,-0.78,-0.66
4.941e-03,-0.76,-0.82
4.943e-03,-0.76,-0.7
4.945e-03,-0.72,-0.76
4.947e-03,-0.7,-0.56
4.949e-03,-0.58,-0.68
4.951e-03,-0.64,-0.54
4.953e-03,-0.58,-0.72
4.955e-03,-0.66,-0.52
4.957e-03,-0.56,-0.66
4.959e-03,-0.58,-0.5
4.961e-03,-0.54,-0.72
4.962e-03,-0.58,-0.48
4.964e-03,-0.66,-0.76
4.966e-03,-0.66,-0.6
4.968e-03,-0.7,-0.84
4.970e-03,-0.74,-0.62
4.972e-03,-0.8,-0.84
4.974e-03,-0.76,-0.64
4.976e-03,-0.72,-0.76
4.978e-03,-0.6,-0.58
4.980e-03,-0.74,-0.88
4.982e-03,-0.72,-0.68
4.984e-03,-0.84,-0.88
4.986e-03,-0.78,-0.62
4.987e-03,-0.64,-0.7
4.989e-03,-0.58,-0.52
4.991e-03,-0.62,-0.78
4.993e-03,-0.72,-0.6
4.995e-03,-0.7,-0.86
4.997e-03,-0.78,-0.68
4.999e-03,-0.74,-0.86
5.001e-03,-0.82,-0.72
5.003e-03,-0.78,-0.84
5.005e-03,-0.76,-0.64
5.007e-03,-0.68,-0.76
5.009e-03,-0.66,-0.58
5.010e-03,-0.7,-0.74
5.012e-03,-0.66,-0.6
5.014e-03,-0.7,-0.82
5.016e-03,-0.74,-0.66
5.018e-03,-0.74,-0.8
5.020e-03,-0.68,-0.66
5.022e-03,-0.76,-0.82
5.024e-03,-0.72,-0.62
5.026e-03,-0.72,-0.84
5.028e-03,-0.68,-0.62
5.030e-03,-0.76,-0.82
5.032e-03,-0.76,-0.68
5.034e-03,-0.74,-0.84
5.035e-03,-0.74,-0.68
5.037e-03,-0.74,-0.88
5.039e-03,-0.76,-0.7
5.041e-03,-0.8,-0.88
5.043e-03,-0.8,-0.72
5.045e-03,-0.76,-0.84
5.047e-03,-0.8,-0.7
5.049e-03,-0.72,-0.86
5.051e-03,-0.8,-0.7
5.053e-03,-0.78,-0.9
5.055e-03,-0.82,-0.72
5.057e-03,-0.74,-0.82
5.058e-03,-0.72,-0.64
5.060e-03,-0.68,-0.74
5.062e-03,-0.64,-0.54
5.064e-03,-0.62,-0.74
5.066e-03,-0.62,-0.58
5.068e-03,-0.72,-0.78
5.070e-03,-0.68,-0.6
5.072e-03,-0.66,-0.72
5.074e-03,-0.56,-0.54
5.076e-03,-0.66,-0.76
5.078e-03,-0.6,-0.54
5.080e-03,-0.74,-0.88
5.082e-03,-0.8,-0.68
5.083e-03,-0.8,-0.82
5.085e-03,-0.74,-0.6
5.087e-03,-0.64,-0.88
5.089e-03,-0.72,-0.6
5.091e-03,-0.8,-0.92
5.093e-03,-0.88,-0.78
5.095e-03,-0.78,-0.86
5.097e-03,-0.8,-0.72
5.099e-03,-0.74,-0.84
5.101e-03,-0.82,-0.68
5.103e-03,-0.7,-0.78
5.105e-03,-0.68,-0.6
5.106e-03,-0.7,-0.82
5.108e-03,-0.74,-0.64
5.110e-03,-0.72,-0.78
5.112e-03,-0.7,-0.64
5.114e-03,-0.76,-0.8
5.116e-03,-0.7,-0.62
5.118e-03,-0.72,-0.74
5.120e-03,-0.6,-0.58
5.122e-03,-0.7,-0.8
5.124e-03,-0.64,-0.6
5.126e-03,-0.74,-0.8
5.128e-03,-0.66,-0.64
5.130e-03,-0.76,-0.8
5.131e-03,-0.64,-0.6
5.133e-03,-0.68,-0.8
5.135e-03,-0.72,-0.66
5.137e-03,-0.7,-0.76
5.139e-03,-0.66,-0.6
5.141e-03,-0.64,-0.76
5.143e-03,-0.66,-0.58
5.145e-03,-0.68,-0.76
5.147e-03,-0.7,-0.6
5.149e-03,-0.66,-0.74
5.151e-03,-0.64,-0.56
5.153e-03,-0.6,-0.78
5.154e-03,-0.68,-0.56
5.156e-03,-0.7,-0.78
5.158e-03,-0.68,-0.58
5.160e-03,-0.62,-0.72
5.162e-03,-0.6,-0.54
5.164e-03,-0.72,-0.82
5.166e-03,-0.72,-0.66
5.168e-03,-0.78,-0.8
5.170e-03,-0.7,-0.64
5.172e-03,-0.72,-0.76
5.174e-03,-0.68,-0.62
5.176e-03,-0.76,-0.78
5.178e-03,-0.66,-0.62
5.179e-03,-0.74,-0.82
5.181e-03,-0.72,-0.64
5.183e-03,-0.78,-0.84
5.185e-03,-0.76,-0.68
5.187e-03,-0.72,-0.78
5.189e-03,-0.7,-0.62
5.191e-03,-0.64,-0.72
5.193e-03,-0.66,-0.56
5.195e-03,-0.62,-0.82
5.197e-03,-0.68,-0.6
5.199e-03,-0.74,-0.92
5.201e-03,-0.82,-0.72
5.202e-03,-0.8,-0.88
5.204e-03,-0.8,-0.72
5.206e-03,-0.78,-0.88
5.208e-03,-0.76,-0.72
5.210e-03,-0.86,-0.96
5.212e-03,-0.86,-0.78
5.214e-03,-0.84,-0.9
5.216e-03,-0.7,-0.64
5.218e-03,-0.72,-0.78
5.220e-03,-0.66,-0.64
5.222e-03,-0.76,-0.78
5.224e-03,-0.64,-0.62
5.226e-03,-0.68,-0.74
5.227e-03,-0.62,-0.56
5.229e-03,-0.62,-0.7
5.231e-03,-0.58,-0.54
5.233e-03,-0.6,-0.8
5.235e-03,-0.68,-0.56
5.237e-03,-0.72,-0.86
5.239e-03,-0.8,-0.68
5.241e-03,-0.78,-0.84
5.243e-03,-0.8,-0.7
5.245e-03,-0.76,-0.9
5.247e-03,-0.8,-0.72
5.249e-03,-0.84,-0.92
5.250e-03,-0.8,-0.68
5.252e-03,-0.72,-0.78
5.254e-03,-0.72,-0.62
5.256e-03,-0.66,-0.8
5.258e-03,-0.68,-0.6
5.260e-03,-0.74,-0.78
5.262e-03,-0.68,-0.64
5.264e-03,-0.74,-0.78
5.266e-03,-0.62,-0.52
5.268e-03,-0.62,-0.72
5.270e-03,-0.6,-0.54
5.272e-03,-0.72,-0.74
5.274e-03,-0.62,-0.58
5.275e-03,-0.68,-0.78
5.277e-03,-0.7,-0.6
5.279e-03,-0.76,-0.82
5.281e-03,-0.76,-0.68
5.283e-03,-0.72,-0.78
5.285e-03,-0.72,-0.64
5.287e-03,-0.74,-0.82
5.289e-03,-0.76,-0.64
5.291e-03,-0.7,-0.82
5.293e-03,-0.78,-0.68
5.295e-03,-0.72,-0.82
5.297e-03,-0.72,-0.62
5.298e-03,-0.64,-0.76
5.300e-03,-0.68,-0.62
5.302e-03,-0.62,-0.78
5.304e-03,-0.66,-0.6
5.306e-03,-0.72,-0.8
5.308e-03,-0.72,-0.66
5.310e-03,-0.72,-0.78
5.312e-03,-0.68,-0.62
5.314e-03,-0.74,-0.76
5.316e-03,-0.62,-0.6
5.318e-03,-0.7,-0.78
5.320e-03,-0.66,-0.6
5.322e-03,-0.76,-0.8
5.323e-03,-0.68,-0.62
5.325e-03,-0.72,-0.88
5.327e-03,-0.82,-0.68
5.329e-03,-0.8,-0.88
5.331e-03,-0.8,-0.72
5.333e-03,-0.82,-0.9
5.335e-03,-0.8,-0.68
5.337e-03,-0.68,-0.78
5.339e-03,-0.72,-0.64
5.341e-03,-0.68,-0.86
5.343e-03,-0.8,-0.66
5.345e-03,-0.76,-0.92
5.346e-03,-0.92,-0.76
5.348e-03,-0.84,-0.92
5.350e-03,-0.9,-0.74
5.352e-03,-0.78,-0.86
5.354e-03,-0.72,-0.6
5.356e-03,-0.66,-0.82
5.358e-03,-0.74,-0.62
5.360e-03,-0.74,-0.82
5.362e-03,-0.7,-0.66
5.364e-03,-0.78,-0.86
5.366e-03,-0.74,-0.7
5.368e-03,-0.82,-0.86
5.370e-03,-0.72,-0.68
5.371e-03,-0.72,-0.8
5.373e-03,-0.68,-0.64
5.375e-03,-0.7,-0.78
5.377e-03,-0.66,-0.6
5.379e-03,-0.68,-0.8
5.381e-03,-0.72,-0.64
5.383e-03,-0.68,-0.78
5.385e-03,-0.66,-0.6
5.387e-03,-0.68,-0.76
5.389e-03,-0.72,-0.6
5.391e-03,-0.62,-0.72
5.393e-03,-0.68,-0.58
5.395e-03,-0.58,-0.78
5.396e-03,-0.68,-0.58
5.398e-03,-0.64,-0.76
5.400e-03,-0.68,-0.56
5.402e-03,-0.58,-0.7
5.404e-03,-0.62,-0.54
5.406e-03,-0.64,-0.74
5.408e-03,-0.62,-0.58
5.410e-03,-0.72,-0.92
5.412e-03,-0.74,-0.68
5.414e-03,-0.88,-0.9
5.416e-03,-0.82,-0.76
5.418e-03,-0.84,-0.88
5.419e-03,-0.8,-0.76
5.421e-03,-0.86,-0.88
5.423e-03,-0.72,-0.64
5.425e-03,-0.76,-0.8
5.427e-03,-0.72,-0.64
5.429e-03,-0.74,-0.82
5.431e-03,-0.76,-0.7
5.433e-03,-0.74,-0.82
5.435e-03,-0.76,-0.68
5.437e-03,-0.72,-0.78
5.439e-03,-0.62,-0.56
5.441e-03,-0.64,-0.74
5.443e-03,-0.7,-0.6
5.444e-03,-0.64,-0.76
5.446e-03,-0.7,-0.58
5.448e-03,-0.72,-0.78
5.450e-03,-0.68,-0.6
5.452e-03,-0.64,-0.7
5.454e-03,-0.6,-0.54
5.456e-03,-0.6,-0.72
5.458e-03,-0.64,-0.56
5.460e-03,-0.66,-0.84
5.462e-03,-0.66,-0.58
5.464e-03,-0.82,-0.86
5.466e-03,-0.68,-0.62
5.467e-03,-0.7,-0.76
5.469e-03,-0.62,-0.6
5.471e-03,-0.7,-0.76
5.473e-03,-0.66,-0.62
5.475e-03,-0.66,-0.78
5.477e-03,-0.66,-0.62
5.479e-03,-0.7,-0.78
5.481e-03,-0.6,-0.54
5.483e-03,-0.58,-0.82
5.485e-03,-0.68,-0.54
5.487e-03,-0.74,-0.9
5.489e-03,-0.86,-0.68
5.491e-03,-0.7,-0.8
5.492e-03,-0.78,-0.68
5.494e-03,-0.7,-0.78
5.496e-03,-0.7,-0.64
5.498e-03,-0.68,-0.78
5.500e-03,-0.66,-0.62
5.502e-03,-0.68,-0.76
5.504e-03,-0.7,-0.6
5.506e-03,-0.7,-0.76
5.508e-03,-0.66,-0.62
5.510e-03,-0.76,-0.9
5.512e-03,-0.74,-0.7
5.514e-03,-0.86,-0.88
5.515e-03,-0.76,-0.74
5.517e-03,-0.84,-0.88
5.519e-03,-0.76,-0.7
5.521e-03,-0.84,-0.92
5.523e-03,-0.84,-0.72
5.525e-03,-0.82,-0.84
5.527e-03,-0.74,-0.66
5.529e-03,-0.72,-0.76
5.531e-03,-0.7,-0.62
5.533e-03,-0.7,-0.82
5.535e-03,-0.72,-0.64
5.537e-03,-0.72,-0.84
5.539e-03,-0.82,-0.7
5.540e-03,-0.74,-0.9
5.542e-03,-0.84,-0.72
5.544e-03,-0.8,-0.88
5.546e-03,-0.8,-0.7
5.548e-03,-0.74,-0.9
5.550e-03,-0.82,-0.7
5.552e-03,-0.86,-0.92
5.554e-03,-0.74,-0.68
5.556e-03,-0.76,-0.8
5.558e-03,-0.7,-0.64
5.560e-03,-0.76,-0.84
5.562e-03,-0.7,-0.66
5.563e-03,-0.84,-0.86
5.565e-03,-0.78,-0.68
5.567e-03,-0.74,-0.76
5.569e-03,-0.6,-0.58
5.571e-03,-0.72,-0.76
5.573e-03,-0.58,-0.54
5.575e-03,-0.62,-0.76
5.577e-03,-0.66,-0.58
5.579e-03,-0.7,-0.9
5.581e-03,-0.82,-0.64
5.583e-03,-0.8,-0.9
5.585e-03,-0.86,-0.74
5.587e-03,-0.8,-0.88
5.588e-03,-0.78,-0.68
5.590e-03,-0.7,-0.78
5.592e-03,-0.76,-0.62
5.594e-03,-0.62,-0.78
5.596e-03,-0.72,-0.58
5.598e-03,-0.68,-0.78
5.600e-03,-0.7,-0.6
5.602e-03,-0.66,-0.72
5.604e-03,-0.62,-0.58
5.606e-03,-0.64,-0.76
5.608e-03,-0.6,-0.52
5.610e-03,-0.74,-0.86
5.611e-03,-0.76,-0.68
5.613e-03,-0.82,-0.94
5.615e-03,-0.84,-0.76
5.617e-03,-0.94,-0.94
5.619e-03,-0.78,-0.68
5.621e-03,-0.74,-0.86
5.623e-03,-0.72,-0.68
5.625e-03,-0.8,-0.86
5.627e-03,-0.78,-0.7
5.629e-03,-0.78,-0.86
5.631e-03,-0.76,-0.66
5.633e-03,-0.68,-0.84
5.635e-03,-0.72,-0.6
5.636e-03,-0.74,-0.82
5.638e-03,-0.74,-0.62
5.640e-03,-0.62,-0.8
5.642e-03,-0.72,-0.62
5.644e-03,-0.72,-0.84
5.646e-03,-0.76,-0.68
5.648e-03,-0.76,-0.88
5.650e-03,-0.8,-0.72
5.652e-03,-0.84,-0.9
5.654e-03,-0.82,-0.76
5.656e-03,-0.82,-0.86
5.658e-03,-0.74,-0.7
5.659e-03,-0.86,-0.88
5.661e-03,-0.74,-0.7
5.663e-03,-0.78,-0.86
5.665e-03,-0.72,-0.68
5.667e-03,-0.82,-0.86
5.669e-03,-0.76,-0.74
5.671e-03,-0.82,-0.9
5.673e-03,-0.82,-0.74
5.675e-03,-0.78,-0.86
5.677e-03,-0.82,-0.72
5.679e-03,-0.78,-0.84
5.681e-03,-0.78,-0.7
5.683e-03,-0.72,-0.84
5.684e-03,-0.84,-0.72
5.686e-03,-0.76,-0.82
5.688e-03,-0.78,-0.62
5.690e-03,-0.64,-0.74
5.692e-03,-0.68,-0.58
5.694e-03,-0.66,-0.84
5.696e-03,-0.78,-0.62
5.698e-03,-0.76,-0.84
5.700e-03,-0.78,-0.64
5.702e-03,-0.72,-0.8
5.704e-03,-0.66,-0.62
5.706e-03,-0.76,-0.88
5.707e-03,-0.8,-0.68
5.709e-03,-0.88,-0.94
5.711e-03,-0.82,-0.78
5.713e-03,-0.84,-0.88
5.715e-03,-0.78,-0.7
5.717e-03,-0.78,-0.84
5.719e-03,-0.76,-0.68
5.721e-03,-0.8,-0.84
5.723e-03,-0.74,-0.7
5.725e-03,-0.78,-0.84
5.727e-03,-0.74,-0.68
5.729e-03,-0.72,-0.8
5.731e-03,-0.72,-0.64
5.732e-03,-0.72,-0.82
5.734e-03,-0.74,-0.64
5.736e-03,-0.72,-0.82
5.738e-03,-0.8,-0.66
5.740e-03,-0.68,-0.86
5.742e-03,-0.76,-0.66
5.744e-03,-0.76,-0.9
5.746e-03,-0.84,-0.74
5.748e-03,-0.86,-0.9
5.750e-03,-0.76,-0.62
5.752e-03,-0.7,-0.86
5.754e-03,-0.78,-0.66
5.755e-03,-0.74,-0.82
5.757e-03,-0.74,-0.66
5.759e-03,-0.74,-0.78
5.761e-03,-0.68,-0.62
5.763e-03,-0.72,-0.84
5.765e-03,-0.64,-0.62
5.767e-03,-0.82,-0.86
5.769e-03,-0.76,-0.66
5.771e-03,-0.72,-0.84
5.773e-03,-0.78,-0.68
5.775e-03,-0.74,-0.8
5.777e-03,-0.72,-0.62
5.779e-03,-0.62,-0.7
5.780e-03,-0.64,-0.54
5.782e-03,-0.62,-0.8
5.784e-03,-0.72,-0.6
5.786e-03,-0.74,-0.88
5.788e-03,-0.84,-0.72
5.790e-03,-0.8,-0.9
5.792e-03,-0.84,-0.72
5.794e-03,-0.76,-0.82
5.796e-03,-0.72,-0.62
5.798e-03,-0.74,-0.82
5.800e-03,-0.66,-0.6
5.802e-03,-0.68,-0.82
5.803e-03,-0.74,-0.64
5.805e-03,-0.78,-0.84
5.807e-03,-0.7,-0.64
5.809e-03,-0.72,-0.78
5.811e-03,-0.64,-0.58
5.813e-03,-0.66,-0.7
5.815e-03,-0.6,-0.58
5.817e-03,-0.66,-0.7
5.819e-03,-0.6,-0.56
5.821e-03,-0.64,-0.76
5.823e-03,-0.68,-0.6
5.825e-03,-0.64,-0.74
5.827e-03,-0.7,-0.58
5.828e-03,-0.64,-0.82
5.830e-03,-0.78,-0.62
5.832e-03,-0.72,-0.8
5.834e-03,-0.78,-0.66
5.836e-03,-0.66,-0.76
5.838e-03,-0.7,-0.64
5.840e-03,-0.68,-0.8
5.842e-03,-0.72,-0.66
5.844e-03,-0.7,-0.8
5.846e-03,-0.7,-0.64
5.848e-03,-0.74,-0.82
5.850e-03,-0.74,-0.68
5.851e-03,-0.74,-0.8
5.853e-03,-0.7,-0.68
5.855e-03,-0.74,-0.78
5.857e-03,-0.66,-0.62
5.859e-03,-0.74,-0.76
5.861e-03,-0.62,-0.54
5.863e-03,-0.64,-0.76
5.865e-03,-0.66,-0.56
5.867e-03,-0.72,-0.82
5.869e-03,-0.72,-0.64
5.871e-03,-0.78,-0.82
5.873e-03,-0.72,-0.64
5.875e-03,-0.7,-0.82
5.876e-03,-0.76,-0.64
5.878e-03,-0.74,-0.84
5.880e-03,-0.78,-0.68
5.882e-03,-0.7,-0.82
5.884e-03,-0.78,-0.68
5.886e-03,-0.7,-0.84
5.888e-03,-0.8,-0.66
5.890e-03,-0.72,-0.8
5.892e-03,-0.74,-0.64
5.894e-03,-0.7,-0.82
5.896e-03,-0.74,-0.66
5.898e-03,-0.76,-0.86
5.899e-03,-0.78,-0.68
5.901e-03,-0.78,-0.88
5.903e-03,-0.74,-0.68
5.905e-03,-0.84,-0.86
5.907e-03,-0.66,-0.62
5.909e-03,-0.76,-0.8
5.911e-03,-0.66,-0.64
5.913e-03,-0.72,-0.78
5.915e-03,-0.66,-0.64
5.917e-03,-0.74,-0.82
5.919e-03,-0.72,-0.68
5.921e-03,-0.76,-0.84
5.923e-03,-0.7,-0.6
5.924e-03,-0.64,-0.76
5.926e-03,-0.72,-0.58
5.928e-03,-0.62,-0.74
5.930e-03,-0.7,-0.6
5.932e-03,-0.64,-0.76
5.934e-03,-0.72,-0.54
5.936e-03,-0.54,-0.66
5.938e-03,-0.62,-0.5
5.940e-03,-0.54,-0.66
5.942e-03,-0.6,-0.52
5.944e-03,-0.6,-0.72
5.946e-03,-0.64,-0.54
5.947e-03,-0.68,-0.8
5.949e-03,-0.72,-0.6
5.951e-03,-0.76,-0.82
5.953e-03,-0.7,-0.6
5.955e-03,-0.68,-0.82
5.957e-03,-0.74,-0.62
5.959e-03,-0.68,-0.82
5.961e-03,-0.72,-0.6
5.963e-03,-0.82,-0.84
5.965e-03,-0.76,-0.66
5.967e-03,-0.74,-0.78
5.969e-03,-0.7,-0.64
5.971e-03,-0.7,-0.82
5.972e-03,-0.76,-0.62
5.974e-03,-0.72,-0.78
5.976e-03,-0.72,-0.64
5.978e-03,-0.68,-0.74
5.980e-03,-0.62,-0.52
5.982e-03,-0.56,-0.66
5.984e-03,-0.6,-0.52
5.986e-03,-0.6,-0.8
5.988e-03,-0.72,-0.58
5.990e-03,-0.72,-0.84
5.992e-03,-0.8,-0.72
5.994e-03,-0.76,-0.9
5.995e-03,-0.84,-0.72
5.997e-03,-0.78,-0.82
5.999e-03,-0.72,-0.66
6.001e-03,-0.78,-0.84
6.003e-03,-0.76,-0.68
6.005e-03,-0.78,-0.82
6.007e-03,-0.7,-0.68
6.009e-03,-0.76,-0.78
6.011e-03,-0.66,-0.62
6.013e-03,-0.68,-0.74
6.015e-03,-0.6,-0.56
6.017e-03,-0.62,-0.7
6.019e-03,-0.56,-0.52
6.020e-03,-0.6,-0.78
6.022e-03,-0.7,-0.56
6.024e-03,-0.68,-0.84
6.026e-03,-0.82,-0.66
6.028e-03,-0.72,-0.78
6.030e-03,-0.72,-0.6
6.032e-03,-0.66,-0.78
6.034e-03,-0.7,-0.62
6.036e-03,-0.68,-0.8
6.038e-03,-0.74,-0.66
6.040e-03,-0.7,-0.78
6.042e-03,-0.72,-0.6
6.044e-03,-0.66,-0.74
6.045e-03,-0.6,-0.54
6.047e-03,-0.6,-0.78
6.049e-03,-0.66,-0.54
6.051e-03,-0.72,-0.84
6.053e-03,-0.72,-0.64
6.055e-03,-0.78,-0.8
6.057e-03,-0.62,-0.62
6.059e-03,-0.72,-0.78
6.061e-03,-0.7,-0.62
6.063e-03,-0.72,-0.8
6.065e-03,-0.74,-0.64
6.067e-03,-0.72,-0.84
6.068e-03,-0.64,-0.58
6.070e-03,-0.78,-0.84
6.072e-03,-0.76,-0.7
6.074e-03,-0.8,-0.86
6.076e-03,-0.72,-0.62
6.078e-03,-0.66,-0.76
6.080e-03,-0.72,-0.6
6.082e-03,-0.6,-0.72
6.084e-03,-0.62,-0.54
6.086e-03,-0.64,-0.76
6.088e-03,-0.68,-0.58
6.090e-03,-0.64,-0.78
6.092e-03,-0.64,-0.58
6.093e-03,-0.72,-0.78
6.095e-03,-0.68,-0.62
6.097e-03,-0.68,-0.8
6.099e-03,-0.68,-0.6
6.101e-03,-0.8,-0.86
6.103e-03,-0.78,-0.7
6.105e-03,-0.84,-0.84
6.107e-03,-0.68,-0.64
6.109e-03,-0.72,-0.76
6.111e-03,-0.62,-0.6
6.113e-03,-0.66,-0.74
6.115e-03,-0.64,-0.56
6.116e-03,-0.7,-0.74
6.118e-03,-0.68,-0.62
6.120e-03,-0.66,-0.76
6.122e-03,-0.66,-0.58
6.124e-03,-0.68,-0.84
6.126e-03,-0.78,-0.66
6.128e-03,-0.76,-0.92
6.130e-03,-0.88,-0.72
6.132e-03,-0.78,-0.94
6.134e-03,-0.9,-0.74
6.136e-03,-0.84,-0.9
6.138e-03,-0.84,-0.7
6.140e-03,-0.76,-0.84
6.141e-03,-0.78,-0.66
6.143e-03,-0.72,-0.78
6.145e-03,-0.58,-0.54
6.147e-03,-0.62,-0.7
6.149e-03,-0.6,-0.56
6.151e-03,-0.64,-0.86
6.153e-03,-0.7,-0.58
6.155e-03,-0.82,-0.88
6.157e-03,-0.74,-0.68
6.159e-03,-0.74,-0.78
6.161e-03,-0.62,-0.54
6.163e-03,-0.62,-0.66
6.164e-03,-0.58,-0.52
6.166e-03,-0.58,-0.84
6.168e-03,-0.62,-0.5
6.170e-03,-0.78,-0.86
6.172e-03,-0.8,-0.72
6.174e-03,-0.74,-0.82
6.176e-03,-0.78,-0.68
6.178e-03,-0.7,-0.82
6.180e-03,-0.8,-0.66
6.182e-03,-0.7,-0.84
6.184e-03,-0.76,-0.68
6.186e-03,-0.7,-0.82
6.188e-03,-0.74,-0.68
6.189e-03,-0.72,-0.84
6.191e-03,-0.76,-0.66
6.193e-03,-0.82,-0.9
6.195e-03,-0.82,-0.76
6.197e-03,-0.86,-0.88
6.199e-03,-0.76,-0.74
6.201e-03,-0.84,-0.92
6.203e-03,-0.8,-0.76
6.205e-03,-0.86,-0.9
6.207e-03,-0.76,-0.72
6.209e-03,-0.78,-0.84
6.211e-03,-0.66,-0.62
6.212e-03,-0.76,-0.84
6.214e-03,-0.72,-0.66
6.216e-03,-0.76,-0.86
6.218e-03,-0.8,-0.72
6.220e-03,-0.78,-0.86
6.222e-03,-0.82,-0.7
6.224e-03,-0.7,-0.86
6.226e-03,-0.78,-0.66
6.228e-03,-0.76,-0.82
6.230e-03,-0.74,-0.66
6.232e-03,-0.74,-0.88
6.234e-03,-0.86,-0.72
6.236e-03,-0.74,-0.82
6.237e-03,-0.66,-0.6
6.239e-03,-0.7,-0.84
6.241e-03,-0.8,-0.64
6.243e-03,-0.72,-0.76
6.245e-03,-0.68,-0.62
6.247e-03,-0.72,-0.8
6.249e-03,-0.7,-0.64
6.251e-03,-0.76,-0.86
6.253e-03,-0.74,-0.7
6.255e-03,-0.76,-0.78
6.257e-03,-0.54,-0.54
6.259e-03,-0.6,-0.64
6.260e-03,-0.54,-0.52
6.262e-03,-0.6,-0.76
6.264e-03,-0.68,-0.56
6.266e-03,-0.7,-0.78
6.268e-03,-0.66,-0.56
6.270e-03,-0.62,-0.78
6.272e-03,-0.74,-0.6
6.274e-03,-0.7,-0.82
6.276e-03,-0.72,-0.62
6.278e-03,-0.7,-0.9
6.280e-03,-0.82,-0.68
6.282e-03,-0.82,-0.96
6.284e-03,-0.92,-0.74
6.285e-03,-0.76,-0.82
6.287e-03,-0.72,-0.64
6.289e-03,-0.7,-0.78
6.291e-03,-0.68,-0.62
6.293e-03,-0.7,-0.76
6.295e-03,-0.66,-0.64
6.297e-03,-0.74,-0.84
6.299e-03,-0.7,-0.66
6.301e-03,-0.8,-0.9
6.303e-03,-0.8,-0.72
6.305e-03,-0.86,-0.88
6.307e-03,-0.8,-0.7
6.308e-03,-0.78,-0.82
6.310e-03,-0.7,-0.64
6.312e-03,-0.72,-0.8
6.314e-03,-0.76,-0.62
6.316e-03,-0.68,-0.78
6.318e-03,-0.72,-0.64
6.320e-03,-0.66,-0.78
6.322e-03,-0.72,-0.6
6.324e-03,-0.6,-0.78
6.326e-03,-0.68,-0.56
6.328e-03,-0.64,-0.74
6.330e-03,-0.7,-0.6
6.332e-03,-0.66,-0.78
6.333e-03,-0.74,-0.62
6.335e-03,-0.72,-0.86
6.337e-03,-0.76,-0.66
6.339e-03,-0.8,-0.9
6.341e-03,-0.84,-0.74
6.343e-03,-0.86,-0.94
6.345e-03,-0.84,-0.8
6.347e-03,-0.9,-0.94
6.349e-03,-0.84,-0.76
6.351e-03,-0.88,-0.9
6.353e-03,-0.72,-0.7
6.355e-03,-0.8,-0.86
6.356e-03,-0.76,-0.72
6.358e-03,-0.76,-0.8
6.360e-03,-0.7,-0.6
6.362e-03,-0.64,-0.8
6.364e-03,-0.7,-0.6
6.366e-03,-0.76,-0.8
6.368e-03,-0.66,-0.54
6.370e-03,-0.56,-0.72
6.372e-03,-0.62,-0.52
6.374e-03,-0.66,-0.76
6.376e-03,-0.72,-0.62
6.378e-03,-0.64,-0.84
6.380e-03,-0.8,-0.62
6.381e-03,-0.7,-0.88
6.383e-03,-0.82,-0.68
6.385e-03,-0.78,-0.96
6.387e-03,-0.9,-0.76
6.389e-03,-0.88,-0.9
6.391e-03,-0.72,-0.68
6.393e-03,-0.76,-0.84
6.395e-03,-0.7,-0.68
6.397e-03,-0.84,-0.86
6.399e-03,-0.72,-0.62
6.401e-03,-0.68,-0.78
6.403e-03,-0.64,-0.62
6.404e-03,-0.76,-0.78
6.406e-03,-0.68,-0.62
6.408e-03,-0.7,-0.76
6.410e-03,-0.66,-0.62
6.412e-03,-0.72,-0.78
6.414e-03,-0.68,-0.6
6.416e-03,-0.72,-0.88
6.418e-03,-0.82,-0.7
6.420e-03,-0.72,-0.86
6.422e-03,-0.8,-0.66
6.424e-03,-0.78,-0.86
6.426e-03,-0.8,-0.62
6.428e-03,-0.64,-0.78
6.429e-03,-0.7,-0.6
6.431e-03,-0.62,-0.82
6.433e-03,-0.7,-0.6
6.435e-03,-0.78,-0.86
6.437e-03,-0.78,-0.66
6.439e-03,-0.72,-0.82
6.441e-03,-0.72,-0.66
6.443e-03,-0.8,-0.86
6.445e-03,-0.7,-0.64
6.447e-03,-0.72,-0.76
6.449e-03,-0.62,-0.56
6.451e-03,-0.68,-0.74
6.452e-03,-0.58,-0.56
6.454e-03,-0.64,-0.82
6.456e-03,-0.66,-0.56
6.458e-03,-0.74,-0.84
6.460e-03,-0.68,-0.64
6.462e-03,-0.76,-0.82
6.464e-03,-0.7,-0.64
6.466e-03,-0.76,-0.82
6.468e-03,-0.74,-0.62
6.470e-03,-0.6,-0.76
6.472e-03,-0.72,-0.58
6.474e-03,-0.68,-0.84
6.476e-03,-0.82,-0.66
6.477e-03,-0.66,-0.76
6.479e-03,-0.7,-0.58
6.481e-03,-0.62,-0.76
6.483e-03,-0.7,-0.58
6.485e-03,-0.72,-0.84
6.487e-03,-0.74,-0.68
6.489e-03,-0.8,-0.9
6.491e-03,-0.8,-0.74
6.493e-03,-0.88,-0.92
6.495e-03,-0.8,-0.66
6.497e-03,-0.74,-0.82
6.499e-03,-0.72,-0.62
6.500e-03,-0.72,-0.74
6.502e-03,-0.62,-0.6
6.504e-03,-0.7,-0.72
6.506e-03,-0.56,-0.52
6.508e-03,-0.7,-0.78
6.510e-03,-0.68,-0.6
6.512e-03,-0.72,-0.82
6.514e-03,-0.74,-0.66
6.516e-03,-0.74,-0.84
6.518e-03,-0.78,-0.7
6.520e-03,-0.7,-0.76
6.522e-03,-0.68,-0.54
6.524e-03,-0.54,-0.76
6.525e-03,-0.68,-0.52
6.527e-03,-0.66,-0.78
6.529e-03,-0.74,-0.64
6.531e-03,-0.66,-0.86
6.533e-03,-0.68,-0.6
6.535e-03,-0.8,-0.86
6.537e-03,-0.78,-0.72
6.539e-03,-0.78,-0.84
6.541e-03,-0.72,-0.64
6.543e-03,-0.72,-0.78
6.545e-03,-0.68,-0.64
6.547e-03,-0.72,-0.76
6.548e-03,-0.64,-0.58
6.550e-03,-0.72,-0.82
6.552e-03,-0.72,-0.66
6.554e-03,-0.78,-0.82
6.556e-03,-0.7,-0.68
6.558e-03,-0.76,-0.88
6.560e-03,-0.74,-0.7
6.562e-03,-0.82,-0.88
6.564e-03,-0.78,-0.7
6.566e-03,-0.8,-0.86
6.568e-03,-0.8,-0.64
6.570e-03,-0.68,-0.8
6.572e-03,-0.76,-0.66
6.573e-03,-0.7,-0.8
6.575e-03,-0.76,-0.64
6.577e-03,-0.7,-0.78
6.579e-03,-0.72,-0.62
6.581e-03,-0.68,-0.74
6.583e-03,-0.64,-0.56
6.585e-03,-0.66,-0.84
6.587e-03,-0.72,-0.64
6.589e-03,-0.76,-0.82
6.591e-03,-0.7,-0.62
6.593e-03,-0.8,-0.84
6.595e-03,-0.64,-0.62
6.596e-03,-0.72,-0.74
6.598e-03,-0.62,-0.58
6.600e-03,-0.66,-0.76
6.602e-03,-0.66,-0.58
6.604e-03,-0.72,-0.78
6.606e-03,-0.68,-0.62
6.608e-03,-0.72,-0.76
6.610e-03,-0.66,-0.6
6.612e-03,-0.66,-0.8
6.614e-03,-0.72,-0.62
6.616e-03,-0.74,-0.86
6.618e-03,-0.8,-0.7
6.620e-03,-0.74,-0.82
6.621e-03,-0.72,-0.5
6.623e-03,-0.54,-0.72
6.625e-03,-0.66,-0.52
6.627e-03,-0.6,-0.7
6.629e-03,-0.6,-0.54
6.631e-03,-0.6,-0.74
6.633e-03,-0.64,-0.58
6.635e-03,-0.64,-0.76
6.637e-03,-0.7,-0.6
6.639e-03,-0.74,-0.8
6.641e-03,-0.7,-0.64
6.643e-03,-0.74,-0.76
6.645e-03,-0.62,-0.6
6.646e-03,-0.72,-0.76
6.648e-03,-0.62,-0.6
6.650e-03,-0.7,-0.86
6.652e-03,-0.72,-0.62
6.654e-03,-0.82,-0.88
6.656e-03,-0.72,-0.66
6.658e-03,-0.7,-0.78
6.660e-03,-0.7,-0.64
6.662e-03,-0.7,-0.78
6.664e-03,-0.68,-0.62
6.666e-03,-0.62,-0.76
6.668e-03,-0.64,-0.56
6.669e-03,-0.68,-0.78
6.671e-03,-0.72,-0.64
6.673e-03,-0.7,-0.82
6.675e-03,-0.78,-0.64
6.677e-03,-0.68,-0.76
6.679e-03,-0.68,-0.56
6.681e-03,-0.62,-0.76
6.683e-03,-0.68,-0.58
6.685e-03,-0.68,-0.82
6.687e-03,-0.7,-0.62
6.689e-03,-0.76,-0.82
6.691e-03,-0.72,-0.68
6.693e-03,-0.8,-0.84
6.694e-03,-0.64,-0.62
6.696e-03,-0.74,-0.76
6.698e-03,-0.6,-0.56
6.700e-03,-0.68,-0.84
6.702e-03,-0.68,-0.62
6.704e-03,-0.82,-0.9
6.706e-03,-0.74,-0.68
6.708e-03,-0.72,-0.82
6.710e-03,-0.74,-0.68
6.712e-03,-0.74,-0.82
6.714e-03,-0.78,-0.68
6.716e-03,-0.7,-0.8
6.717e-03,-0.74,-0.6
6.719e-03,-0.62,-0.72
6.721e-03,-0.66,-0.58
6.723e-03,-0.64,-0.76
6.725e-03,-0.72,-0.62
6.727e-03,-0.66,-0.82
6.729e-03,-0.76,-0.64
6.731e-03,-0.68,-0.8
6.733e-03,-0.74,-0.64
6.735e-03,-0.72,-0.84
6.737e-03,-0.74,-0.68
6.739e-03,-0.76,-0.82
6.741e-03,-0.72,-0.68
6.742e-03,-0.78,-0.84
6.744e-03,-0.72,-0.68
6.746e-03,-0.78,-0.84
6.748e-03,-0.76,-0.7
6.750e-03,-0.8,-0.84
6.752e-03,-0.68,-0.64
6.754e-03,-0.82,-0.84
6.756e-03,-0.74,-0.62
6.758e-03,-0.66,-0.76
6.760e-03,-0.66,-0.58
6.762e-03,-0.66,-0.74
6.764e-03,-0.68,-0.6
6.765e-03,-0.66,-0.74
6.767e-03,-0.66,-0.56
6.769e-03,-0.62,-0.76
6.771e-03,-0.72,-0.6
6.773e-03,-0.64,-0.76
6.775e-03,-0.72,-0.6
6.777e-03,-0.66,-0.8
6.779e-03,-0.72,-0.62
6.781e-03,-0.72,-0.8
6.783e-03,-0.68,-0.64
6.785e-03,-0.72,-0.84
6.787e-03,-0.76,-0.68
6.789e-03,-0.78,-0.84
6.790e-03,-0.74,-0.7
6.792e-03,-0.82,-0.88
6.794e-03,-0.78,-0.72
6.796e-03,-0.82,-0.84
6.798e-03,-0.68,-0.58
6.800e-03,-0.6,-0.74
6.802e-03,-0.54,-0.52
6.804e-03,-0.66,-0.74
6.806e-03,-0.62,-0.58
6.808e-03,-0.62,-0.86
6.810e-03,-0.78,-0.6
6.812e-03,-0.72,-0.9
6.813e-03,-0.84,-0.7
6.815e-03,-0.72,-0.8
6.817e-03,-0.78,-0.6
6.819e-03,-0.62,-0.74
6.821e-03,-0.7,-0.58
6.823e-03,-0.62,-0.72
6.825e-03,-0.68,-0.58
6.827e-03,-0.62,-0.86
6.829e-03,-0.76,-0.6
6.831e-03,-0.82,-0.9
6.833e-03,-0.82,-0.76
6.835e-03,-0.88,-0.94
6.837e-03,-0.86,-0.76
6.838e-03,-0.84,-0.86
6.840e-03,-0.72,-0.66
6.842e-03,-0.74,-0.88
6.844e-03,-0.8,-0.68
6.846e-03,-0.86,-0.88
6.848e-03,-0.76,-0.7
6.850e-03,-0.78,-0.82
6.852e-03,-0.72,-0.66
6.854e-03,-0.8,-0.82
6.856e-03,-0.72,-0.66
6.858e-03,-0.72,-0.78
6.860e-03,-0.7,-0.64
6.861e-03,-0.68,-0.88
6.863e-03,-0.8,-0.64
6.865e-03,-0.74,-0.84
6.867e-03,-0.78,-0.64
6.869e-03,-0.68,-0.82
6.871e-03,-0.78,-0.66
6.873e-03,-0.72,-0.84
6.875e-03,-0.8,-0.7
6.877e-03,-0.72,-0.88
6.879e-03,-0.82,-0.7
6.881e-03,-0.82,-0.88
6.883e-03,-0.8,-0.68
6.885e-03,-0.74,-0.88
6.886e-03,-0.78,-0.68
6.888e-03,-0.78,-0.84
6.890e-03,-0.72,-0.7
6.892e-03,-0.8,-0.84
6.894e-03,-0.74,-0.7
6.896e-03,-0.78,-0.82
6.898e-03,-0.66,-0.64
6.900e-03,-0.78,-0.88
6.902e-03,-0.8,-0.7
6.904e-03,-0.78,-0.88
6.906e-03,-0.8,-0.72
6.908e-03,-0.78,-0.86
6.909e-03,-0.8,-0.64
6.911e-03,-0.64,-0.78
6.913e-03,-0.72,-0.56
6.915e-03,-0.56,-0.72
6.917e-03,-0.66,-0.52
6.919e-03,-0.66,-0.76
6.921e-03,-0.74,-0.62
6.923e-03,-0.7,-0.82
6.925e-03,-0.78,-0.66
6.927e-03,-0.72,-0.82
6.929e-03,-0.74,-0.64
6.931e-03,-0.7,-0.82
6.933e-03,-0.76,-0.62
6.934e-03,-0.74,-0.78
6.936e-03,-0.68,-0.64
6.938e-03,-0.72,-0.86
6.940e-03,-0.72,-0.66
6.942e-03,-0.82,-0.84
6.944e-03,-0.66,-0.6
6.946e-03,-0.7,-0.8
6.948e-03,-0.72,-0.64
6.950e-03,-0.74,-0.88
6.952e-03,-0.68,-0.64
6.954e-03,-0.82,-0.92
6.956e-03,-0.86,-0.74
6.957e-03,-0.78,-0.84
6.959e-03,-0.68,-0.6
6.961e-03,-0.72,-0.88
6.963e-03,-0.86,-0.7
6.965e-03,-0.72,-0.82
6.967e-03,-0.72,-0.6
6.969e-03,-0.6,-0.82
6.971e-03,-0.7,-0.58
6.973e-03,-0.76,-0.88
6.975e-03,-0.78,-0.74
6.977e-03,-0.78,-0.86
6.979e-03,-0.74,-0.62
6.981e-03,-0.68,-0.74
6.982e-03,-0.66,-0.6
6.984e-03,-0.68,-0.84
6.986e-03,-0.78,-0.64
6.988e-03,-0.76,-0.82
6.990e-03,-0.72,-0.64
6.992e-03,-0.72,-0.78
6.994e-03,-0.68,-0.62
6.996e-03,-0.66,-0.8
6.998e-03,-0.72,-0.6
7.000e-03,-0.72,-0.8
7.002e-03,-0.72,-0.64
7.004e-03,-0.7,-0.86
7.005e-03,-0.74,-0.64
7.007e-03,-0.78,-0.86
7.009e-03,-0.76,-0.66
7.011e-03,-0.76,-0.84
7.013e-03,-0.74,-0.66
7.015e-03,-0.72,-0.82
7.017e-03,-0.76,-0.64
7.019e-03,-0.7,-0.82
7.021e-03,-0.8,-0.68
7.023e-03,-0.72,-0.78
7.025e-03,-0.74,-0.58
7.027e-03,-0.62,-0.88
7.029e-03,-0.76,-0.58
7.030e-03,-0.86,-0.96
7.032e-03,-0.88,-0.78
7.034e-03,-0.84,-0.88
7.036e-03,-0.7,-0.66
7.038e-03,-0.78,-0.82
7.040e-03,-0.72,-0.68
7.042e-03,-0.76,-0.86
7.044e-03,-0.72,-0.62
7.046e-03,-0.86,-0.96
7.048e-03,-0.86,-0.72
7.050e-03,-0.78,-0.82
7.052e-03,-0.68,-0.6
7.053e-03,-0.7,-0.84
7.055e-03,-0.78,-0.66
7.057e-03,-0.74,-0.86
7.059e-03,-0.74,-0.66
7.061e-03,-0.78,-0.9
7.063e-03,-0.84,-0.7
7.065e-03,-0.74,-0.86
7.067e-03,-0.84,-0.72
7.069e-03,-0.74,-0.88
7.071e-03,-0.8,-0.64
7.073e-03,-0.66,-0.74
7.075e-03,-0.64,-0.58
7.077e-03,-0.64,-0.74
7.078e-03,-0.66,-0.6
7.080e-03,-0.68,-0.92
7.082e-03,-0.76,-0.66
7.084e-03,-0.88,-0.9
7.086e-03,-0.78,-0.72
7.088e-03,-0.78,-0.82
7.090e-03,-0.64,-0.6
7.092e-03,-0.68,-0.72
7.094e-03,-0.62,-0.58
7.096e-03,-0.7,-0.8
7.098e-03,-0.66,-0.6
7.100e-03,-0.8,-0.88
7.101e-03,-0.8,-0.72
7.103e-03,-0.82,-0.88
7.105e-03,-0.84,-0.72
7.107e-03,-0.74,-0.78
7.109e-03,-0.68,-0.6
7.111e-03,-0.7,-0.82
7.113e-03,-0.78,-0.66
7.115e-03,-0.66,-0.82
7.117e-03,-0.76,-0.64
7.119e-03,-0.76,-0.82
7.121e-03,-0.78,-0.68
7.123e-03,-0.74,-0.82
7.125e-03,-0.74,-0.64
7.126e-03,-0.72,-0.84
7.128e-03,-0.76,-0.66
7.130e-03,-0.8,-0.92
7.132e-03,-0.86,-0.72
7.134e-03,-0.78,-0.86
7.136e-03,-0.74,-0.66
7.138e-03,-0.74,-0.74
7.140e-03,-0.58,-0.56
7.142e-03,-0.68,-0.78
7.144e-03,-0.6,-0.58
7.146e-03,-0.76,-0.86
7.148e-03,-0.7,-0.68
7.149e-03,-0.78,-0.86
7.151e-03,-0.72,-0.64
7.153e-03,-0.68,-0.74
7.155e-03,-0.6,-0.48
7.157e-03,-0.52,-0.74
7.159e-03,-0.6,-0.5
7.161e-03,-0.66,-0.88
7.163e-03,-0.84,-0.66
7.165e-03,-0.8,-0.88
7.167e-03,-0.76,-0.64
7.169e-03,-0.64,-0.74
7.171e-03,-0.7,-0.58
7.173e-03,-0.62,-0.7
7.174e-03,-0.62,-0.56
7.176e-03,-0.62,-0.7
7.178e-03,-0.6,-0.54
7.180e-03,-0.64,-0.7
7.182e-03,-0.52,-0.48
7.184e-03,-0.68,-0.74
7.186e-03,-0.64,-0.58
7.188e-03,-0.7,-0.72
7.190e-03,-0.6,-0.56
7.192e-03,-0.66,-0.74
7.194e-03,-0.62,-0.58
7.196e-03,-0.72,-0.78
7.197e-03,-0.7,-0.62
7.199e-03,-0.72,-0.84
7.201e-03,-0.74,-0.64
7.203e-03,-0.76,-0.86
7.205e-03,-0.8,-0.74
7.207e-03,-0.76,-0.82
7.209e-03,-0.76,-0.66
7.211e-03,-0.64,-0.78
7.213e-03,-0.72,-0.62
7.215e-03,-0.7,-0.86
7.217e-03,-0.86,-0.68
7.219e-03,-0.78,-0.92
7.221e-03,-0.84,-0.74
7.222e-03,-0.86,-0.92
7.224e-03,-0.78,-0.72
7.226e-03,-0.78,-0.88
7.228e-03,-0.76,-0.72
7.230e-03,-0.86,-0.9
7.232e-03,-0.74,-0.7
7.234e-03,-0.78,-0.82
7.236e-03,-0.62,-0.6
7.238e-03,-0.7,-0.76
7.240e-03,-0.64,-0.62
7.242e-03,-0.72,-0.78
7.244e-03,-0.64,-0.62
7.245e-03,-0.7,-0.84
7.247e-03,-0.72,-0.66
7.249e-03,-0.8,-0.88
7.251e-03,-0.78,-0.66
7.253e-03,-0.68,-0.78
7.255e-03,-0.74,-0.58
7.257e-03,-0.58,-0.74
7.259e-03,-0.64,-0.56
7.261e-03,-0.68,-0.82
7.263e-03,-0.78,-0.64
7.265e-03,-0.72,-0.82
7.267e-03,-0.76,-0.68
7.269e-03,-0.7,-0.8
7.270e-03,-0.74,-0.64
7.272e-03,-0.7,-0.78
7.274e-03,-0.72,-0.64
7.276e-03,-0.74,-0.8
7.278e-03,-0.7,-0.66
7.280e-03,-0.76,-0.8
7.282e-03,-0.72,-0.66
7.284e-03,-0.76,-0.82
7.286e-03,-0.66,-0.62
7.288e-03,-0.8,-0.86
7.290e-03,-0.78,-0.68
7.292e-03,-0.78,-0.82
7.294e-03,-0.74,-0.7
7.295e-03,-0.76,-0.78
7.297e-03,-0.66,-0.6
7.299e-03,-0.64,-0.74
7.301e-03,-0.68,-0.6
7.303e-03,-0.68,-0.76
7.305e-03,-0.72,-0.62
7.307e-03,-0.68,-0.76
7.309e-03,-0.72,-0.62
7.311e-03,-0.66,-0.76
7.313e-03,-0.66,-0.58
7.315e-03,-0.6,-0.74
7.317e-03,-0.66,-0.56
7.318e-03,-0.6,-0.7
7.320e-03,-0.62,-0.54
7.322e-03,-0.58,-0.74
7.324e-03,-0.62,-0.56
7.326e-03,-0.7,-0.78
7.328e-03,-0.7,-0.66
7.330e-03,-0.78,-0.82
7.332e-03,-0.7,-0.66
7.334e-03,-0.72,-0.88
7.336e-03,-0.78,-0.64
7.338e-03,-0.84,-0.86
7.340e-03,-0.64,-0.62
7.342e-03,-0.7,-0.84
7.343e-03,-0.74,-0.66
7.345e-03,-0.78,-0.86
7.347e-03,-0.8,-0.7
7.349e-03,-0.74,-0.9
7.351e-03,-0.84,-0.7
7.353e-03,-0.8,-0.94
7.355e-03,-0.82,-0.74
7.357e-03,-0.86,-0.94
7.359e-03,-0.86,-0.72
7.361e-03,-0.72,-0.82
7.363e-03,-0.78,-0.66
7.365e-03,-0.68,-0.78
7.366e-03,-0.76,-0.66
7.368e-03,-0.72,-0.86
7.370e-03,-0.78,-0.68
7.372e-03,-0.8,-0.88
7.374e-03,-0.8,-0.7
7.376e-03,-0.76,-0.92
7.378e-03,-0.8,-0.7
7.380e-03,-0.88,-0.9
7.382e-03,-0.78,-0.72
7.384e-03,-0.82,-0.84
7.386e-03,-0.72,-0.64
7.388e-03,-0.72,-0.74
7.390e-03,-0.64,-0.58
7.391e-03,-0.68,-0.84
7.393e-03,-0.66,-0.6
7.395e-03,-0.8,-0.86
7.397e-03,-0.78,-0.72
7.399e-03,-0.78,-0.82
7.401e-03,-0.68,-0.6
7.403e-03,-0.72,-0.84
7.405e-03,-0.76,-0.62
7.407e-03,-0.64,-0.8
7.409e-03,-0.76,-0.64
7.411e-03,-0.72,-0.82
7.413e-03,-0.76,-0.68
7.414e-03,-0.7,-0.82
7.416e-03,-0.74,-0.68
7.418e-03,-0.7,-0.76
7.420e-03,-0.68,-0.62
7.422e-03,-0.66,-0.72
7.424e-03,-0.66,-0.56
7.426e-03,-0.62,-0.74
7.428e-03,-0.62,-0.56
7.430e-03,-0.72,-0.74
7.432e-03,-0.6,-0.54
7.434e-03,-0.62,-0.74
7.436e-03,-0.56,-0.52
7.438e-03,-0.72,-0.84
7.439e-03,-0.7,-0.64
7.441e-03,-0.82,-0.86
7.443e-03,-0.78,-0.72
7.445e-03,-0.78,-0.9
7.447e-03,-0.78,-0.72
7.449e-03,-0.82,-0.92
7.451e-03,-0.88,-0.76
7.453e-03,-0.8,-0.88
7.455e-03,-0.76,-0.6
7.457e-03,-0.62,-0.7
7.459e-03,-0.58,-0.46
7.461e-03,-0.48,-0.7
7.462e-03,-0.64,-0.46
7.464e-03,-0.62,-0.78
7.466e-03,-0.76,-0.6
7.468e-03,-0.72,-0.86
7.470e-03,-0.78,-0.66
7.472e-03,-0.74,-0.82
7.474e-03,-0.72,-0.66
7.476e-03,-0.76,-0.86
7.478e-03,-0.78,-0.68
7.480e-03,-0.74,-0.8
7.482e-03,-0.7,-0.66
7.484e-03,-0.72,-0.76
7.486e-03,-0.56,-0.54
7.487e-03,-0.62,-0.7
7.489e-03,-0.6,-0.54
7.491e-03,-0.62,-0.7
7.493e-03,-0.62,-0.54
7.495e-03,-0.62,-0.84
7.497e-03,-0.76,-0.6
7.499e-03,-0.74,-0.84
7.501e-03,-0.78,-0.66
7.503e-03,-0.66,-0.74
7.505e-03,-0.58,-0.5
7.507e-03,-0.58,-0.78
7.509e-03,-0.68,-0.56
7.510e-03,-0.68,-0.76
7.512e-03,-0.7,-0.62
7.514e-03,-0.64,-0.76
7.516e-03,-0.7,-0.6
7.518e-03,-0.7,-0.82
7.520e-03,-0.7,-0.64
7.522e-03,-0.78,-0.82
7.524e-03,-0.68,-0.58
7.526e-03,-0.64,-0.8
7.528e-03,-0.6,-0.56
7.530e-03,-0.82,-0.88
7.532e-03,-0.78,-0.72
7.534e-03,-0.84,-0.9
7.535e-03,-0.8,-0.66
7.537e-03,-0.74,-0.78
7.539e-03,-0.7,-0.64
7.541e-03,-0.72,-0.76
7.543e-03,-0.64,-0.6
7.545e-03,-0.68,-0.84
7.547e-03,-0.76,-0.62
7.549e-03,-0.76,-0.84
7.551e-03,-0.76,-0.64
7.553e-03,-0.66,-0.74
7.555e-03,-0.7,-0.6
7.557e-03,-0.6,-0.7
7.558e-03,-0.66,-0.56
7.560e-03,-0.6,-0.68
7.562e-03,-0.6,-0.5
7.564e-03,-0.62,-0.72
7.566e-03,-0.66,-0.58
7.568e-03,-0.66,-0.78
7.570e-03,-0.74,-0.62
7.572e-03,-0.74,-0.94
7.574e-03,-0.82,-0.7
7.576e-03,-0.88,-0.92
7.578e-03,-0.68,-0.6
7.580e-03,-0.7,-0.78
7.582e-03,-0.66,-0.62
7.583e-03,-0.76,-0.84
7.585e-03,-0.72,-0.66
7.587e-03,-0.78,-0.82
7.589e-03,-0.7,-0.66
7.591e-03,-0.7,-0.78
7.593e-03,-0.7,-0.64
7.595e-03,-0.68,-0.84
7.597e-03,-0.76,-0.64
7.599e-03,-0.76,-0.86
7.601e-03,-0.82,-0.68
7.603e-03,-0.68,-0.78
7.605e-03,-0.74,-0.64
7.606e-03,-0.66,-0.76
7.608e-03,-0.66,-0.58
7.610e-03,-0.66,-0.82
7.612e-03,-0.78,-0.66
7.614e-03,-0.72,-0.78
7.616e-03,-0.64,-0.54
7.618e-03,-0.6,-0.68
7.620e-03,-0.58,-0.52
7.622e-03,-0.6,-0.84
7.624e-03,-0.64,-0.56
7.626e-03,-0.82,-0.84
7.628e-03,-0.74,-0.7
7.630e-03,-0.78,-0.82
7.631e-03,-0.64,-0.62
7.633e-03,-0.72,-0.78
7.635e-03,-0.66,-0.6
7.637e-03,-0.68,-0.72
7.639e-03,-0.62,-0.58
7.641e-03,-0.7,-0.86
7.643e-03,-0.68,-0.6
7.645e-03,-0.8,-0.9
7.647e-03,-0.86,-0.72
7.649e-03,-0.76,-0.86
7.651e-03,-0.82,-0.7
7.653e-03,-0.72,-0.8
7.654e-03,-0.74,-0.64
7.656e-03,-0.68,-0.8
7.658e-03,-0.74,-0.64
7.660e-03,-0.7,-0.8
7.662e-03,-0.74,-0.64
7.664e-03,-0.72,-0.8
7.666e-03,-0.74,-0.64
7.668e-03,-0.68,-0.76
7.670e-03,-0.68,-0.62
7.672e-03,-0.68,-0.76
7.674e-03,-0.68,-0.6
7.676e-03,-0.66,-0.7
7.678e-03,-0.56,-0.54
7.679e-03,-0.7,-0.74
7.681e-03,-0.64,-0.58
7.683e-03,-0.66,-0.84
7.685e-03,-0.64,-0.58
7.687e-03,-0.8,-0.86
7.689e-03,-0.76,-0.68
7.691e-03,-0.78,-0.9
7.693e-03,-0.82,-0.74
7.695e-03,-0.82,-0.86
7.697e-03,-0.76,-0.66
7.699e-03,-0.66,-0.82
7.701e-03,-0.76,-0.64
7.702e-03,-0.72,-0.9
7.704e-03,-0.8,-0.68
7.706e-03,-0.78,-0.86
7.708e-03,-0.76,-0.66
7.710e-03,-0.7,-0.76
7.712e-03,-0.66,-0.58
7.714e-03,-0.68,-0.74
7.716e-03,-0.66,-0.6
7.718e-03,-0.7,-0.86
7.720e-03,-0.74,-0.64
7.722e-03,-0.82,-0.88
7.724e-03,-0.78,-0.64
7.726e-03,-0.72,-0.76
7.727e-03,-0.64,-0.62
7.729e-03,-0.74,-0.78
7.731e-03,-0.68,-0.64
7.733e-03,-0.74,-0.84
7.735e-03,-0.76,-0.66
7.737e-03,-0.82,-0.88
7.739e-03,-0.8,-0.72
7.741e-03,-0.86,-0.9
7.743e-03,-0.8,-0.7
7.745e-03,-0.7,-0.8
7.747e-03,-0.66,-0.62
7.749e-03,-0.74,-0.82
7.750e-03,-0.74,-0.66
7.752e-03,-0.7,-0.86
7.754e-03,-0.82,-0.7
7.756e-03,-0.76,-0.86
7.758e-03,-0.82,-0.68
7.760e-03,-0.66,-0.74
7.762e-03,-0.62,-0.54
7.764e-03,-0.62,-0.74
7.766e-03,-0.66,-0.56
7.768e-03,-0.68,-0.74
7.770e-03,-0.64,-0.58
7.772e-03,-0.7,-0.78
7.774e-03,-0.7,-0.62
7.775e-03,-0.74,-0.76
7.777e-03,-0.66,-0.64
7.779e-03,-0.72,-0.8
7.781e-03,-0.7,-0.62
7.783e-03,-0.7,-0.78
7.785e-03,-0.68,-0.6
7.787e-03,-0.72,-0.88
7.789e-03,-0.78,-0.66
7.791e-03,-0.78,-0.84
7.793e-03,-0.64,-0.58
7.795e-03,-0.7,-0.82
7.797e-03,-0.8,-0.68
7.798e-03,-0.7,-0.76
7.800e-03,-0.68,-0.58
7.802e-03,-0.62,-0.72
7.804e-03,-0.7,-0.6
7.806e-03,-0.62,-0.74
7.808e-03,-0.7,-0.6
7.810e-03,-0.64,-0.74
7.812e-03,-0.72,-0.6
7.814e-03,-0.62,-0.68
7.816e-03,-0.56,-0.5
7.818e-03,-0.62,-0.78
7.820e-03,-0.64,-0.54
7.822e-03,-0.72,-0.78
7.823e-03,-0.66,-0.64
7.825e-03,-0.74,-0.78
7.827e-03,-0.68,-0.64
7.829e-03,-0.72,-0.82
7.831e-03,-0.68,-0.62
7.833e-03,-0.8,-0.86
7.835e-03,-0.76,-0.72
7.837e-03,-0.82,-0.88
7.839e-03,-0.78,-0.7
7.841e-03,-0.76,-0.84
7.843e-03,-0.76,-0.68
7.845e-03,-0.74,-0.82
7.846e-03,-0.68,-0.6
7.848e-03,-0.64,-0.84
7.850e-03,-0.78,-0.6
7.852e-03,-0.78,-0.98
7.854e-03,-0.94,-0.76
7.856e-03,-0.9,-1
7.858e-03,-0.94,-0.78
7.860e-03,-0.78,-0.88
7.862e-03,-0.78,-0.72
7.864e-03,-0.76,-0.82
7.866e-03,-0.74,-0.66
7.868e-03,-0.7,-0.78
7.870e-03,-0.6,-0.58
7.871e-03,-0.76,-0.86
7.873e-03,-0.76,-0.7
7.875e-03,-0.78,-0.92
7.877e-03,-0.8,-0.7
7.879e-03,-0.88,-0.9
7.881e-03,-0.8,-0.7
7.883e-03,-0.76,-0.78
7.885e-03,-0.66,-0.62
7.887e-03,-0.72,-0.76
7.889e-03,-0.66,-0.58
7.891e-03,-0.66,-0.74
7.893e-03,-0.68,-0.58
7.895e-03,-0.64,-0.78
7.896e-03,-0.76,-0.6
7.898e-03,-0.66,-0.76
7.900e-03,-0.68,-0.58
7.902e-03,-0.6,-0.76
7.904e-03,-0.72,-0.6
7.906e-03,-0.64,-0.74
7.908e-03,-0.7,-0.6
7.910e-03,-0.66,-0.74
7.912e-03,-0.64,-0.56
7.914e-03,-0.7,-0.76
7.916e-03,-0.66,-0.6
7.918e-03,-0.7,-0.78
7.919e-03,-0.7,-0.62
7.921e-03,-0.72,-0.8
7.923e-03,-0.7,-0.66
7.925e-03,-0.76,-0.82
7.927e-03,-0.7,-0.62
7.929e-03,-0.7,-0.8
7.931e-03,-0.6,-0.6
7.933e-03,-0.78,-0.88
7.935e-03,-0.78,-0.7
7.937e-03,-0.8,-0.86
7.939e-03,-0.78,-0.72
7.941e-03,-0.78,-0.84
7.943e-03,-0.72,-0.64
7.944e-03,-0.66,-0.86
7.946e-03,-0.74,-0.62
7.948e-03,-0.78,-0.9
7.950e-03,-0.82,-0.68
7.952e-03,-0.74,-0.82
7.954e-03,-0.74,-0.62
7.956e-03,-0.6,-0.68
7.958e-03,-0.54,-0.46
7.960e-03,-0.5,-0.68
7.962e-03,-0.6,-0.48
7.964e-03,-0.64,-0.74
7.966e-03,-0.64,-0.6
7.967e-03,-0.72,-0.78
7.969e-03,-0.66,-0.6
7.971e-03,-0.72,-0.8
7.973e-03,-0.68,-0.62
7.975e-03,-0.78,-0.82
7.977e-03,-0.7,-0.66
7.979e-03,-0.74,-0.88
7.981e-03,-0.8,-0.68
7.983e-03,-0.82,-0.86
7.985e-03,-0.76,-0.7
7.987e-03,-0.8,-0.84
7.989e-03,-0.72,-0.6
7.991e-03,-0.62,-0.7
7.992e-03,-0.6,-0.52
7.994e-03,-0.62,-0.7
7.996e-03,-0.62,-0.54
7.998e-03,-0.62,-0.72
8.000e-03,-0.68,-0.6
8.002e-03,-0.64,-0.72
8.004e-03,-0.68,-0.54
8.006e-03,-0.56,-0.74
8.008e-03,-0.62,-0.54
8.010e-03,-0.66,-0.82
8.012e-03,-0.72,-0.62
8.014e-03,-0.74,-0.8
8.015e-03,-0.72,-0.64
8.017e-03,-0.72,-0.86
8.019e-03,-0.74,-0.66
8.021e-03,-0.8,-0.84
8.023e-03,-0.66,-0.6
8.025e-03,-0.72,-0.88
8.027e-03,-0.72,-0.64
8.029e-03,-0.82,-0.86
8.031e-03,-0.76,-0.7
8.033e-03,-0.76,-0.84
8.035e-03,-0.76,-0.7
8.037e-03,-0.76,-0.84
8.039e-03,-0.76,-0.62
8.040e-03,-0.62,-0.76
8.042e-03,-0.72,-0.56
8.044e-03,-0.64,-0.8
8.046e-03,-0.74,-0.62
8.048e-03,-0.68,-0.8
8.050e-03,-0.7,-0.62
8.052e-03,-0.68,-0.8
8.054e-03,-0.74,-0.66
8.056e-03,-0.7,-0.8
8.058e-03,-0.72,-0.66
8.060e-03,-0.7,-0.78
8.062e-03,-0.72,-0.62
8.063e-03,-0.68,-0.84
8.065e-03,-0.74,-0.64
8.067e-03,-0.78,-0.84
8.069e-03,-0.74,-0.68
8.071e-03,-0.78,-0.82
8.073e-03,-0.68,-0.64
8.075e-03,-0.68,-0.78
8.077e-03,-0.62,-0.58
8.079e-03,-0.76,-0.8
8.081e-03,-0.72,-0.66
8.083e-03,-0.76,-0.82
8.085e-03,-0.72,-0.66
8.087e-03,-0.78,-0.84
8.088e-03,-0.76,-0.7
8.090e-03,-0.76,-0.86
8.092e-03,-0.78,-0.72
8.094e-03,-0.76,-0.82
8.096e-03,-0.78,-0.64
8.098e-03,-0.64,-0.74
8.100e-03,-0.68,-0.6
8.102e-03,-0.6,-0.72
8.104e-03,-0.64,-0.58
8.106e-03,-0.6,-0.74
8.108e-03,-0.64,-0.58
8.110e-03,-0.64,-0.76
8.111e-03,-0.7,-0.6
8.113e-03,-0.66,-0.78
8.115e-03,-0.68,-0.62
8.117e-03,-0.72,-0.84
8.119e-03,-0.74,-0.66
8.121e-03,-0.82,-0.86
8.123e-03,-0.76,-0.72
8.125e-03,-0.84,-0.88
8.127e-03,-0.66,-0.66
8.129e-03,-0.7,-0.76
8.131e-03,-0.56,-0.5
8.133e-03,-0.52,-0.66
8.135e-03,-0.58,-0.48
8.136e-03,-0.6,-0.66
8.138e-03,-0.54,-0.48
8.140e-03,-0.5,-0.66
8.142e-03,-0.52,-0.42
8.144e-03,-0.6,-0.74
8.146e-03,-0.68,-0.56
8.148e-03,-0.58,-0.7
8.150e-03,-0.6,-0.52
8.152e-03,-0.62,-0.7
8.154e-03,-0.68,-0.54
8.156e-03,-0.56,-0.74
8.158e-03,-0.66,-0.54
8.159e-03,-0.66,-0.78
8.161e-03,-0.72,-0.62
8.163e-03,-0.72,-0.82
8.165e-03,-0.74,-0.66
8.167e-03,-0.74,-0.82
8.169e-03,-0.72,-0.7
8.171e-03,-0.8,-0.82
8.173e-03,-0.66,-0.6
8.175e-03,-0.7,-0.74
8.177e-03,-0.62,-0.5
8.179e-03,-0.6,-0.72
8.181e-03,-0.62,-0.52
8.183e-03,-0.68,-0.8
8.184e-03,-0.66,-0.6
8.186e-03,-0.74,-0.86
8.188e-03,-0.74,-0.68
8.190e-03,-0.8,-0.86
8.192e-03,-0.82,-0.72
8.194e-03,-0.72,-0.78
8.196e-03,-0.74,-0.58
8.198e-03,-0.6,-0.7
8.200e-03,-0.62,-0.5
8.202e-03,-0.58,-0.7
8.204e-03,-0.68,-0.56
8.206e-03,-0.64,-0.82
8.207e-03,-0.74,-0.6
8.209e-03,-0.76,-0.8
8.211e-03,-0.66,-0.62
8.213e-03,-0.68,-0.72
8.215e-03,-0.62,-0.56
8.217e-03,-0.7,-0.78
8.219e-03,-0.7,-0.62
8.221e-03,-0.74,-0.82
8.223e-03,-0.7,-0.66
8.225e-03,-0.8,-0.84
8.227e-03,-0.68,-0.64
8.229e-03,-0.72,-0.76
8.231e-03,-0.68,-0.62
8.232e-03,-0.68,-0.78
8.234e-03,-0.66,-0.6
8.236e-03,-0.7,-0.9
8.238e-03,-0.8,-0.68
8.240e-03,-0.84,-0.9
8.242e-03,-0.82,-0.72
8.244e-03,-0.76,-0.8
8.246e-03,-0.68,-0.58
8.248e-03,-0.66,-0.74
8.250e-03,-0.72,-0.54
8.252e-03,-0.56,-0.7
8.254e-03,-0.62,-0.52
8.255e-03,-0.62,-0.76
8.257e-03,-0.7,-0.58
8.259e-03,-0.66,-0.76
8.261e-03,-0.66,-0.62
8.263e-03,-0.72,-0.82
8.265e-03,-0.7,-0.66
8.267e-03,-0.78,-0.84
8.269e-03,-0.74,-0.7
8.271e-03,-0.84,-0.86
8.273e-03,-0.74,-0.62
8.275e-03,-0.68,-0.74
8.277e-03,-0.64,-0.58
8.279e-03,-0.68,-0.74
8.280e-03,-0.66,-0.62
8.282e-03,-0.66,-0.76
8.284e-03,-0.68,-0.62
8.286e-03,-0.68,-0.78
8.288e-03,-0.7,-0.62
8.290e-03,-0.7,-0.82
8.292e-03,-0.78,-0.68
8.294e-03,-0.72,-0.84
8.296e-03,-0.82,-0.72
8.298e-03,-0.74,-0.84
8.300e-03,-0.8,-0.72
8.302e-03,-0.74,-0.9
8.303e-03,-0.82,-0.72
8.305e-03,-0.78,-0.86
8.307e-03,-0.78,-0.68
8.309e-03,-0.72,-0.78
8.311e-03,-0.62,-0.58
8.313e-03,-0.66,-0.76
8.315e-03,-0.66,-0.6
8.317e-03,-0.76,-0.84
8.319e-03,-0.74,-0.68
8.321e-03,-0.82,-0.86
8.323e-03,-0.72,-0.66
8.325e-03,-0.76,-0.8
8.327e-03,-0.72,-0.64
8.328e-03,-0.7,-0.76
8.330e-03,-0.68,-0.6
8.332e-03,-0.66,-0.76
8.334e-03,-0.66,-0.58
8.336e-03,-0.68,-0.78
8.338e-03,-0.72,-0.64
8.340e-03,-0.7,-0.78
8.342e-03,-0.68,-0.6
8.344e-03,-0.58,-0.78
8.346e-03,-0.72,-0.56
8.348e-03,-0.7,-0.76
8.350e-03,-0.68,-0.56
8.351e-03,-0.62,-0.76
8.353e-03,-0.72,-0.58
8.355e-03,-0.66,-0.74
8.357e-03,-0.64,-0.56
8.359e-03,-0.66,-0.74
8.361e-03,-0.68,-0.6
8.363e-03,-0.66,-0.78
8.365e-03,-0.7,-0.6
8.367e-03,-0.76,-0.84
8.369e-03,-0.7,-0.68
8.371e-03,-0.82,-0.84
8.373e-03,-0.68,-0.66
8.375e-03,-0.74,-0.78
8.376e-03,-0.66,-0.6
8.378e-03,-0.62,-0.68
8.380e-03,-0.6,-0.52
8.382e-03,-0.58,-0.74
8.384e-03,-0.62,-0.54
8.386e-03,-0.64,-0.74
8.388e-03,-0.68,-0.6
8.390e-03,-0.6,-0.72
8.392e-03,-0.68,-0.56
8.394e-03,-0.56,-0.76
8.396e-03,-0.68,-0.52
8.398e-03,-0.64,-0.82
8.399e-03,-0.76,-0.62
8.401e-03,-0.66,-0.84
8.403e-03,-0.74,-0.64
8.405e-03,-0.76,-0.88
8.407e-03,-0.78,-0.72
8.409e-03,-0.84,-0.96
8.411e-03,-0.88,-0.74
8.413e-03,-0.82,-0.9
8.415e-03,-0.84,-0.7
8.417e-03,-0.76,-0.8
8.419e-03,-0.64,-0.58
8.421e-03,-0.66,-0.7
8.423e-03,-0.58,-0.54
8.424e-03,-0.64,-0.7
8.426e-03,-0.52,-0.48
8.428e-03,-0.7,-0.84
8.430e-03,-0.7,-0.62
8.432e-03,-0.8,-0.96
8.434e-03,-0.88,-0.74
8.436e-03,-0.88,-0.98
8.438e-03,-0.88,-0.76
8.440e-03,-0.76,-0.84
8.442e-03,-0.78,-0.66
8.444e-03,-0.66,-0.74
8.446e-03,-0.64,-0.56
8.447e-03,-0.62,-0.74
8.449e-03,-0.7,-0.58
8.451e-03,-0.62,-0.76
8.453e-03,-0.72,-0.6
8.455e-03,-0.7,-0.78
8.457e-03,-0.72,-0.64
8.459e-03,-0.74,-0.8
8.461e-03,-0.7,-0.68
8.463e-03,-0.76,-0.82
8.465e-03,-0.7,-0.64
8.467e-03,-0.84,-0.92
8.469e-03,-0.84,-0.72
8.471e-03,-0.78,-0.82
8.472e-03,-0.74,-0.62
8.474e-03,-0.66,-0.7
8.476e-03,-0.56,-0.5
8.478e-03,-0.62,-0.74
8.480e-03,-0.64,-0.58
8.482e-03,-0.68,-0.78
8.484e-03,-0.74,-0.64
8.486e-03,-0.66,-0.86
8.488e-03,-0.8,-0.64
8.490e-03,-0.74,-0.9
8.492e-03,-0.8,-0.68
8.494e-03,-0.82,-0.92
8.495e-03,-0.88,-0.78
8.497e-03,-0.82,-0.92
8.499e-03,-0.86,-0.76
8.501e-03,-0.82,-0.9
8.503e-03,-0.84,-0.68
8.505e-03,-0.72,-0.76
8.507e-03,-0.6,-0.54
8.509e-03,-0.64,-0.76
8.511e-03,-0.66,-0.58
8.513e-03,-0.68,-0.72
8.515e-03,-0.6,-0.56
8.517e-03,-0.68,-0.72
8.519e-03,-0.58,-0.56
8.520e-03,-0.72,-0.8
8.522e-03,-0.68,-0.64
8.524e-03,-0.78,-0.8
8.526e-03,-0.7,-0.64
8.528e-03,-0.74,-0.84
8.530e-03,-0.72,-0.64
8.532e-03,-0.76,-0.84
8.534e-03,-0.74,-0.68
8.536e-03,-0.74,-0.82
8.538e-03,-0.78,-0.66
8.540e-03,-0.66,-0.78
8.542e-03,-0.74,-0.62
8.544e-03,-0.7,-0.8
8.545e-03,-0.72,-0.66
8.547e-03,-0.68,-0.8
8.549e-03,-0.76,-0.66
8.551e-03,-0.7,-0.82
8.553e-03,-0.76,-0.66
8.555e-03,-0.76,-0.82
8.557e-03,-0.74,-0.66
8.559e-03,-0.72,-0.78
8.561e-03,-0.64,-0.6
8.563e-03,-0.78,-0.9
8.565e-03,-0.8,-0.72
8.567e-03,-0.84,-0.9
8.568e-03,-0.8,-0.76
8.570e-03,-0.82,-0.9
8.572e-03,-0.78,-0.74
8.574e-03,-0.78,-0.84
8.576e-03,-0.74,-0.66
8.578e-03,-0.76,-0.84
8.580e-03,-0.78,-0.68
8.582e-03,-0.66,-0.74
8.584e-03,-0.66,-0.56
8.586e-03,-0.6,-0.8
8.588e-03,-0.78,-0.56
8.590e-03,-0.68,-0.88
8.592e-03,-0.84,-0.66
8.593e-03,-0.78,-0.84
8.595e-03,-0.76,-0.66
8.597e-03,-0.68,-0.76
8.599e-03,-0.7,-0.6
8.601e-03,-0.64,-0.72
8.603e-03,-0.66,-0.56
8.605e-03,-0.64,-0.74
8.607e-03,-0.62,-0.58
8.609e-03,-0.64,-0.72
8.611e-03,-0.62,-0.56
8.613e-03,-0.68,-0.8
8.615e-03,-0.68,-0.58
8.616e-03,-0.76,-0.84
8.618e-03,-0.74,-0.68
8.620e-03,-0.8,-0.86
8.622e-03,-0.78,-0.7
8.624e-03,-0.8,-0.84
8.626e-03,-0.72,-0.58
8.628e-03,-0.64,-0.72
8.630e-03,-0.68,-0.56
8.632e-03,-0.6,-0.7
8.634e-03,-0.62,-0.54
8.636e-03,-0.6,-0.78
8.638e-03,-0.74,-0.6
8.640e-03,-0.7,-0.78
8.641e-03,-0.7,-0.62
8.643e-03,-0.66,-0.9
8.645e-03,-0.78,-0.66
8.647e-03,-0.84,-0.92
8.649e-03,-0.86,-0.76
8.651e-03,-0.8,-0.86
8.653e-03,-0.74,-0.64
8.655e-03,-0.7,-0.74
8.657e-03,-0.62,-0.56
8.659e-03,-0.68,-0.82
8.661e-03,-0.68,-0.6
8.663e-03,-0.8,-0.88
8.664e-03,-0.76,-0.72
8.666e-03,-0.8,-0.84
8.668e-03,-0.74,-0.7
8.670e-03,-0.76,-0.8
8.672e-03,-0.68,-0.6
8.674e-03,-0.68,-0.72
8.676e-03,-0.6,-0.54
8.678e-03,-0.56,-0.66
8.680e-03,-0.62,-0.54
8.682e-03,-0.56,-0.72
8.684e-03,-0.68,-0.52
8.686e-03,-0.62,-0.78
8.688e-03,-0.74,-0.6
8.689e-03,-0.68,-0.78
8.691e-03,-0.72,-0.62
8.693e-03,-0.7,-0.76
8.695e-03,-0.74,-0.62
8.697e-03,-0.68,-0.76
8.699e-03,-0.68,-0.58
8.701e-03,-0.62,-0.74
8.703e-03,-0.68,-0.58
8.705e-03,-0.66,-0.8
8.707e-03,-0.7,-0.6
8.709e-03,-0.74,-0.82
8.711e-03,-0.74,-0.66
8.712e-03,-0.74,-0.9
8.714e-03,-0.74,-0.68
8.716e-03,-0.82,-0.84
8.718e-03,-0.72,-0.66
8.720e-03,-0.74,-0.78
8.722e-03,-0.68,-0.64
8.724e-03,-0.68,-0.76
8.726e-03,-0.66,-0.6
8.728e-03,-0.64,-0.78
8.730e-03,-0.74,-0.6
8.732e-03,-0.72,-0.82
8.734e-03,-0.72,-0.64
8.736e-03,-0.72,-0.78
8.737e-03,-0.7,-0.56
8.739e-03,-0.6,-0.82
8.741e-03,-0.72,-0.58
8.743e-03,-0.68,-0.84
8.745e-03,-0.78,-0.66
8.747e-03,-0.78,-0.88
8.749e-03,-0.76,-0.62
8.751e-03,-0.68,-0.86
8.753e-03,-0.72,-0.62
8.755e-03,-0.78,-0.82
8.757e-03,-0.62,-0.58
8.759e-03,-0.66,-0.76
8.760e-03,-0.6,-0.58
8.762e-03,-0.72,-0.78
8.764e-03,-0.64,-0.6
8.766e-03,-0.74,-0.76
8.768e-03,-0.6,-0.58
8.770e-03,-0.66,-0.76
8.772e-03,-0.7,-0.6
8.774e-03,-0.72,-0.78
8.776e-03,-0.74,-0.64
8.778e-03,-0.66,-0.76
8.780e-03,-0.72,-0.56
8.782e-03,-0.58,-0.7
8.784e-03,-0.6,-0.54
8.785e-03,-0.56,-0.62
8.787e-03,-0.58,-0.46
8.789e-03,-0.52,-0.76
8.791e-03,-0.64,-0.52
8.793e-03,-0.68,-0.8
8.795e-03,-0.76,-0.6
8.797e-03,-0.68,-0.76
8.799e-03,-0.68,-0.62
8.801e-03,-0.68,-0.72
8.803e-03,-0.58,-0.5
8.805e-03,-0.58,-0.68
8.807e-03,-0.58,-0.52
8.808e-03,-0.64,-0.78
8.810e-03,-0.64,-0.58
8.812e-03,-0.76,-0.84
8.814e-03,-0.68,-0.66
8.816e-03,-0.82,-0.86

