Model,DPO2002B
Firmware Version,1.52

Point Format,Y,
Horizontal Units,S,
Horizontal Scale,0.001,
Sample Interval,1.92012e-06,
Filter Frequency,7e+07,
Record Length,5207,
Gating,0.0% to 100.0%,
Probe Attenuation,10,
Vertical Units,V,
Vertical Offset,0.6,
Vertical Scale,0.5,
Label,,
TIME,CH1,CH1 Peak Detect
-1.180e-03,-0.93,-1.03
-1.178e-03,-0.95,-0.85
-1.176e-03,-0.93,-0.97
-1.174e-03,-0.89,-0.73
-1.172e-03,-0.73,-0.79
-1.170e-03,-0.67,-0.61
-1.168e-03,-0.65,-0.79
-1.167e-03,-0.69,-0.61
-1.165e-03,-0.71,-0.83
-1.163e-03,-0.79,-0.65
-1.161e-03,-0.65,-0.83
-1.159e-03,-0.71,-0.61
-1.157e-03,-0.75,-0.89
-1.155e-03,-0.81,-0.73
-1.153e-03,-0.79,-0.93
-1.151e-03,-0.83,-0.77
-1.149e-03,-0.91,-1.01
-1.147e-03,-0.97,-0.85
-1.145e-03,-0.93,-0.99
-1.144e-03,-0.91,-0.83
-1.142e-03,-0.89,-0.93
-1.140e-03,-0.83,-0.77
-1.138e-03,-0.87,-0.87
-1.136e-03,-0.73,-0.69
-1.134e-03,-0.73,-0.79
-1.132e-03,-0.65,-0.63
-1.130e-03,-0.73,-0.83
-1.128e-03,-0.73,-0.69
-1.126e-03,-0.77,-0.87
-1.124e-03,-0.81,-0.71
-1.122e-03,-0.79,-0.85
-1.120e-03,-0.77,-0.69
-1.119e-03,-0.77,-0.89
-1.117e-03,-0.87,-0.75
-1.115e-03,-0.81,-0.89
-1.113e-03,-0.83,-0.75
-1.111e-03,-0.81,-0.91
-1.109e-03,-0.87,-0.73
-1.107e-03,-0.77,-0.91
-1.105e-03,-0.89,-0.71
-1.103e-03,-0.75,-0.87
-1.101e-03,-0.81,-0.71
-1.099e-03,-0.79,-0.91
-1.097e-03,-0.81,-0.73
-1.096e-03,-0.89,-0.93
-1.094e-03,-0.83,-0.77
-1.092e-03,-0.89,-0.91
-1.090e-03,-0.77,-0.73
-1.088e-03,-0.83,-0.87
-1.086e-03,-0.75,-0.69
-1.084e-03,-0.87,-0.89
-1.082e-03,-0.77,-0.73
-1.080e-03,-0.87,-0.93
-1.078e-03,-0.87,-0.77
-1.076e-03,-0.89,-0.91
-1.074e-03,-0.79,-0.73
-1.072e-03,-0.83,-0.95
-1.071e-03,-0.91,-0.79
-1.069e-03,-0.85,-0.97
-1.067e-03,-0.93,-0.75
-1.065e-03,-0.77,-0.83
-1.063e-03,-0.75,-0.65
-1.061e-03,-0.71,-0.83
-1.059e-03,-0.73,-0.67
-1.057e-03,-0.75,-0.89
-1.055e-03,-0.83,-0.71
-1.053e-03,-0.77,-0.91
-1.051e-03,-0.77,-0.71
-1.049e-03,-0.89,-0.91
-1.048e-03,-0.81,-0.75
-1.046e-03,-0.81,-0.87
-1.044e-03,-0.77,-0.69
-1.042e-03,-0.85,-0.89
-1.040e-03,-0.79,-0.75
-1.038e-03,-0.87,-0.91
-1.036e-03,-0.83,-0.75
-1.034e-03,-0.81,-0.83
-1.032e-03,-0.77,-0.71
-1.030e-03,-0.77,-0.87
-1.028e-03,-0.75,-0.69
-1.026e-03,-0.83,-0.91
-1.024e-03,-0.85,-0.75
-1.023e-03,-0.79,-0.91
-1.021e-03,-0.89,-0.75
-1.019e-03,-0.77,-0.85
-1.017e-03,-0.79,-0.67
-1.015e-03,-0.69,-0.83
-1.013e-03,-0.77,-0.67
-1.011e-03,-0.79,-0.85
-1.009e-03,-0.83,-0.69
-1.007e-03,-0.73,-0.89
-1.005e-03,-0.85,-0.67
-1.003e-03,-0.79,-0.85
-1.001e-03,-0.73,-0.69
-9.995e-04,-0.77,-0.83
-9.976e-04,-0.73,-0.71
-9.957e-04,-0.81,-0.87
-9.937e-04,-0.73,-0.67
-9.918e-04,-0.79,-0.81
-9.899e-04,-0.69,-0.61
-9.880e-04,-0.73,-0.85
-9.861e-04,-0.73,-0.65
-9.841e-04,-0.83,-0.85
-9.822e-04,-0.73,-0.69
-9.803e-04,-0.77,-0.93
-9.784e-04,-0.81,-0.71
-9.765e-04,-0.87,-0.93
-9.745e-04,-0.85,-0.81
-9.726e-04,-0.87,-0.93
-9.707e-04,-0.81,-0.73
-9.688e-04,-0.77,-0.97
-9.669e-04,-0.89,-0.77
-9.649e-04,-0.89,-0.97
-9.630e-04,-0.93,-0.79
-9.611e-04,-0.81,-0.87
-9.592e-04,-0.81,-0.69
-9.573e-04,-0.73,-0.87
-9.553e-04,-0.75,-0.69
-9.534e-04,-0.83,-0.89
-9.515e-04,-0.81,-0.71
-9.496e-04,-0.81,-0.87
-9.477e-04,-0.79,-0.71
-9.457e-04,-0.81,-0.91
-9.438e-04,-0.73,-0.71
-9.419e-04,-0.87,-0.99
-9.400e-04,-0.91,-0.81
-9.381e-04,-0.87,-0.91
-9.361e-04,-0.79,-0.71
-9.342e-04,-0.81,-0.85
-9.323e-04,-0.73,-0.69
-9.304e-04,-0.81,-0.87
-9.285e-04,-0.77,-0.71
-9.265e-04,-0.79,-0.89
-9.246e-04,-0.81,-0.73
-9.227e-04,-0.79,-0.85
-9.208e-04,-0.83,-0.69
-9.189e-04,-0.73,-0.87
-9.169e-04,-0.81,-0.71
-9.150e-04,-0.73,-0.85
-9.131e-04,-0.77,-0.67
-9.112e-04,-0.79,-0.93
-9.093e-04,-0.87,-0.75
-9.073e-04,-0.87,-0.97
-9.054e-04,-0.83,-0.67
-9.035e-04,-0.71,-0.79
-9.016e-04,-0.67,-0.55
-8.997e-04,-0.59,-0.67
-8.977e-04,-0.57,-0.51
-8.958e-04,-0.63,-0.71
-8.939e-04,-0.59,-0.57
-8.920e-04,-0.73,-0.81
-8.901e-04,-0.69,-0.65
-8.881e-04,-0.77,-0.83
-8.862e-04,-0.65,-0.63
-8.843e-04,-0.81,-0.91
-8.824e-04,-0.83,-0.75
-8.805e-04,-0.77,-0.87
-8.785e-04,-0.79,-0.75
-8.766e-04,-0.79,-0.87
-8.747e-04,-0.81,-0.73
-8.728e-04,-0.77,-0.87
-8.709e-04,-0.83,-0.71
-8.689e-04,-0.75,-0.91
-8.670e-04,-0.89,-0.73
-8.651e-04,-0.81,-0.95
-8.632e-04,-0.89,-0.81
-8.613e-04,-0.89,-1.01
-8.593e-04,-0.95,-0.79
-8.574e-04,-0.81,-0.87
-8.555e-04,-0.79,-0.73
-8.536e-04,-0.83,-0.97
-8.517e-04,-0.87,-0.77
-8.497e-04,-0.95,-0.97
-8.478e-04,-0.87,-0.79
-8.459e-04,-0.87,-0.95
-8.440e-04,-0.85,-0.77
-8.421e-04,-0.91,-0.93
-8.401e-04,-0.79,-0.69
-8.382e-04,-0.79,-0.89
-8.363e-04,-0.79,-0.69
-8.344e-04,-0.87,-0.97
-8.325e-04,-0.87,-0.77
-8.305e-04,-0.93,-0.99
-8.286e-04,-0.93,-0.75
-8.267e-04,-0.79,-0.87
-8.248e-04,-0.83,-0.73
-8.229e-04,-0.77,-0.87
-8.209e-04,-0.81,-0.71
-8.190e-04,-0.71,-0.85
-8.171e-04,-0.79,-0.69
-8.152e-04,-0.75,-0.91
-8.133e-04,-0.89,-0.71
-8.113e-04,-0.79,-0.89
-8.094e-04,-0.87,-0.75
-8.075e-04,-0.85,-0.89
-8.056e-04,-0.81,-0.71
-8.037e-04,-0.77,-0.93
-8.017e-04,-0.83,-0.71
-7.998e-04,-0.89,-0.95
-7.979e-04,-0.87,-0.81
-7.960e-04,-0.87,-0.95
-7.941e-04,-0.85,-0.79
-7.921e-04,-0.91,-0.93
-7.902e-04,-0.81,-0.77
-7.883e-04,-0.85,-0.91
-7.864e-04,-0.81,-0.77
-7.845e-04,-0.81,-0.87
-7.825e-04,-0.75,-0.71
-7.806e-04,-0.77,-0.89
-7.787e-04,-0.83,-0.73
-7.768e-04,-0.75,-0.93
-7.749e-04,-0.85,-0.73
-7.729e-04,-0.83,-0.89
-7.710e-04,-0.85,-0.77
-7.691e-04,-0.79,-0.87
-7.672e-04,-0.85,-0.75
-7.653e-04,-0.77,-0.91
-7.633e-04,-0.85,-0.73
-7.614e-04,-0.83,-0.93
-7.595e-04,-0.87,-0.79
-7.576e-04,-0.87,-0.93
-7.557e-04,-0.79,-0.75
-7.537e-04,-0.89,-0.91
-7.518e-04,-0.79,-0.75
-7.499e-04,-0.87,-0.91
-7.480e-04,-0.77,-0.73
-7.461e-04,-0.89,-0.93
-7.441e-04,-0.75,-0.71
-7.422e-04,-0.79,-0.85
-7.403e-04,-0.75,-0.65
-7.384e-04,-0.75,-0.81
-7.365e-04,-0.71,-0.67
-7.345e-04,-0.77,-0.81
-7.326e-04,-0.69,-0.65
-7.307e-04,-0.71,-0.83
-7.288e-04,-0.77,-0.67
-7.269e-04,-0.73,-0.87
-7.249e-04,-0.81,-0.67
-7.230e-04,-0.73,-0.81
-7.211e-04,-0.71,-0.61
-7.192e-04,-0.71,-0.81
-7.173e-04,-0.79,-0.69
-7.153e-04,-0.75,-0.89
-7.134e-04,-0.79,-0.71
-7.115e-04,-0.83,-0.93
-7.096e-04,-0.83,-0.77
-7.076e-04,-0.81,-0.91
-7.057e-04,-0.79,-0.73
-7.038e-04,-0.89,-0.93
-7.019e-04,-0.85,-0.77
-7.000e-04,-0.85,-0.89
-6.980e-04,-0.75,-0.73
-6.961e-04,-0.91,-0.91
-6.942e-04,-0.73,-0.63
-6.923e-04,-0.71,-0.79
-6.904e-04,-0.65,-0.63
-6.884e-04,-0.73,-0.85
-6.865e-04,-0.67,-0.65
-6.846e-04,-0.77,-0.95
-6.827e-04,-0.83,-0.67
-6.808e-04,-0.91,-0.97
-6.788e-04,-0.91,-0.71
-6.769e-04,-0.69,-0.79
-6.750e-04,-0.73,-0.63
-6.731e-04,-0.71,-0.79
-6.712e-04,-0.73,-0.63
-6.692e-04,-0.67,-0.87
-6.673e-04,-0.83,-0.65
-6.654e-04,-0.69,-0.89
-6.635e-04,-0.77,-0.65
-6.616e-04,-0.83,-0.91
-6.596e-04,-0.79,-0.65
-6.577e-04,-0.71,-0.93
-6.558e-04,-0.77,-0.67
-6.539e-04,-0.93,-0.95
-6.520e-04,-0.85,-0.81
-6.500e-04,-0.87,-0.89
-6.481e-04,-0.75,-0.69
-6.462e-04,-0.81,-0.83
-6.443e-04,-0.71,-0.67
-6.424e-04,-0.73,-0.93
-6.404e-04,-0.73,-0.65
-6.385e-04,-0.89,-0.95
-6.366e-04,-0.85,-0.83
-6.347e-04,-0.91,-0.99
-6.328e-04,-0.91,-0.83
-6.308e-04,-0.91,-0.95
-6.289e-04,-0.89,-0.75
-6.270e-04,-0.81,-0.99
-6.251e-04,-0.91,-0.77
-6.232e-04,-0.91,-0.97
-6.212e-04,-0.87,-0.69
-6.193e-04,-0.73,-0.81
-6.174e-04,-0.69,-0.57
-6.155e-04,-0.59,-0.73
-6.136e-04,-0.63,-0.57
-6.116e-04,-0.65,-0.77
-6.097e-04,-0.69,-0.61
-6.078e-04,-0.69,-0.83
-6.059e-04,-0.75,-0.65
-6.040e-04,-0.81,-0.87
-6.020e-04,-0.79,-0.73
-6.001e-04,-0.81,-0.95
-5.982e-04,-0.81,-0.71
-5.963e-04,-0.93,-0.95
-5.944e-04,-0.81,-0.77
-5.924e-04,-0.89,-0.91
-5.905e-04,-0.81,-0.75
-5.886e-04,-0.83,-0.97
-5.867e-04,-0.85,-0.79
-5.848e-04,-0.93,-0.95
-5.828e-04,-0.85,-0.79
-5.809e-04,-0.85,-0.93
-5.790e-04,-0.85,-0.73
-5.771e-04,-0.77,-0.95
-5.752e-04,-0.89,-0.75
-5.732e-04,-0.87,-0.95
-5.713e-04,-0.87,-0.77
-5.694e-04,-0.77,-0.85
-5.675e-04,-0.79,-0.71
-5.656e-04,-0.81,-0.87
-5.636e-04,-0.77,-0.67
-5.617e-04,-0.77,-0.91
-5.598e-04,-0.83,-0.71
-5.579e-04,-0.83,-0.89
-5.560e-04,-0.79,-0.73
-5.540e-04,-0.81,-0.89
-5.521e-04,-0.77,-0.67
-5.502e-04,-0.77,-0.87
-5.483e-04,-0.77,-0.69
-5.464e-04,-0.83,-0.83
-5.444e-04,-0.71,-0.65
-5.425e-04,-0.69,-0.77
-5.406e-04,-0.67,-0.59
-5.387e-04,-0.73,-0.77
-5.368e-04,-0.69,-0.63
-5.348e-04,-0.69,-0.85
-5.329e-04,-0.81,-0.67
-5.310e-04,-0.77,-0.89
-5.291e-04,-0.83,-0.73
-5.272e-04,-0.75,-0.83
-5.252e-04,-0.79,-0.67
-5.233e-04,-0.71,-0.87
-5.214e-04,-0.85,-0.69
-5.195e-04,-0.75,-0.85
-5.176e-04,-0.79,-0.71
-5.156e-04,-0.77,-0.89
-5.137e-04,-0.81,-0.73
-5.118e-04,-0.77,-0.83
-5.099e-04,-0.75,-0.69
-5.080e-04,-0.75,-0.79
-5.060e-04,-0.69,-0.65
-5.041e-04,-0.75,-0.93
-5.022e-04,-0.77,-0.71
-5.003e-04,-0.91,-0.93
-4.984e-04,-0.83,-0.79
-4.964e-04,-0.93,-0.97
-4.945e-04,-0.89,-0.77
-4.926e-04,-0.83,-0.87
-4.907e-04,-0.71,-0.67
-4.888e-04,-0.81,-0.87
-4.868e-04,-0.81,-0.73
-4.849e-04,-0.79,-0.89
-4.830e-04,-0.83,-0.73
-4.811e-04,-0.77,-0.83
-4.792e-04,-0.75,-0.65
-4.772e-04,-0.67,-0.81
-4.753e-04,-0.75,-0.65
-4.734e-04,-0.73,-0.89
-4.715e-04,-0.83,-0.71
-4.696e-04,-0.85,-0.91
-4.676e-04,-0.87,-0.77
-4.657e-04,-0.81,-0.89
-4.638e-04,-0.81,-0.71
-4.619e-04,-0.81,-0.95
-4.600e-04,-0.87,-0.77
-4.580e-04,-0.89,-0.93
-4.561e-04,-0.79,-0.75
-4.542e-04,-0.91,-0.97
-4.523e-04,-0.91,-0.85
-4.504e-04,-0.97,-1.03
-4.484e-04,-0.93,-0.85
-4.465e-04,-0.93,-0.95
-4.446e-04,-0.79,-0.75
-4.427e-04,-0.81,-0.89
-4.408e-04,-0.81,-0.73
-4.388e-04,-0.79,-0.87
-4.369e-04,-0.77,-0.71
-4.350e-04,-0.79,-0.91
-4.331e-04,-0.85,-0.75
-4.312e-04,-0.83,-0.95
-4.292e-04,-0.91,-0.79
-4.273e-04,-0.83,-0.93
-4.254e-04,-0.89,-0.77
-4.235e-04,-0.81,-0.89
-4.216e-04,-0.83,-0.73
-4.196e-04,-0.73,-0.85
-4.177e-04,-0.79,-0.71
-4.158e-04,-0.79,-0.83
-4.139e-04,-0.79,-0.71
-4.120e-04,-0.77,-0.91
-4.100e-04,-0.77,-0.69
-4.081e-04,-0.89,-0.89
-4.062e-04,-0.75,-0.73
-4.043e-04,-0.83,-0.87
-4.024e-04,-0.79,-0.71
-4.004e-04,-0.79,-0.85
-3.985e-04,-0.77,-0.69
-3.966e-04,-0.79,-0.85
-3.947e-04,-0.77,-0.67
-3.927e-04,-0.77,-0.83
-3.908e-04,-0.77,-0.67
-3.889e-04,-0.79,-0.89
-3.870e-04,-0.79,-0.71
-3.851e-04,-0.81,-0.89
-3.831e-04,-0.83,-0.65
-3.812e-04,-0.67,-0.75
-3.793e-04,-0.71,-0.63
-3.774e-04,-0.63,-0.73
-3.755e-04,-0.69,-0.59
-3.735e-04,-0.65,-0.79
-3.716e-04,-0.71,-0.61
-3.697e-04,-0.71,-0.83
-3.678e-04,-0.79,-0.67
-3.659e-04,-0.71,-0.85
-3.639e-04,-0.79,-0.67
-3.620e-04,-0.77,-0.85
-3.601e-04,-0.75,-0.71
-3.582e-04,-0.77,-0.93
-3.563e-04,-0.83,-0.71
-3.543e-04,-0.93,-0.95
-3.524e-04,-0.85,-0.77
-3.505e-04,-0.85,-0.87
-3.486e-04,-0.77,-0.73
-3.467e-04,-0.79,-0.83
-3.447e-04,-0.71,-0.67
-3.428e-04,-0.73,-0.81
-3.409e-04,-0.69,-0.65
-3.390e-04,-0.71,-0.83
-3.371e-04,-0.75,-0.65
-3.351e-04,-0.77,-0.87
-3.332e-04,-0.81,-0.71
-3.313e-04,-0.75,-0.97
-3.294e-04,-0.91,-0.73
-3.275e-04,-0.87,-0.99
-3.255e-04,-0.93,-0.83
-3.236e-04,-0.91,-0.99
-3.217e-04,-0.93,-0.81
-3.198e-04,-0.81,-0.95
-3.179e-04,-0.91,-0.77
-3.159e-04,-0.83,-0.91
-3.140e-04,-0.83,-0.75
-3.121e-04,-0.87,-0.93
-3.102e-04,-0.85,-0.81
-3.083e-04,-0.91,-1.07
-3.063e-04,-0.95,-0.83
-3.044e-04,-1.03,-1.05
-3.025e-04,-0.85,-0.77
-3.006e-04,-0.85,-0.89
-2.987e-04,-0.81,-0.71
-2.967e-04,-0.81,-0.83
-2.948e-04,-0.75,-0.69
-2.929e-04,-0.77,-0.91
-2.910e-04,-0.73,-0.67
-2.891e-04,-0.87,-0.93
-2.871e-04,-0.87,-0.77
-2.852e-04,-0.85,-0.89
-2.833e-04,-0.83,-0.69
-2.814e-04,-0.69,-0.83
-2.795e-04,-0.79,-0.67
-2.775e-04,-0.73,-0.83
-2.756e-04,-0.75,-0.67
-2.737e-04,-0.75,-0.95
-2.718e-04,-0.85,-0.73
-2.699e-04,-0.85,-0.95
-2.679e-04,-0.79,-0.75
-2.660e-04,-0.89,-0.95
-2.641e-04,-0.87,-0.69
-2.622e-04,-0.77,-0.81
-2.603e-04,-0.73,-0.67
-2.583e-04,-0.75,-0.81
-2.564e-04,-0.71,-0.67
-2.545e-04,-0.79,-0.99
-2.526e-04,-0.83,-0.71
-2.507e-04,-0.95,-0.99
-2.487e-04,-0.83,-0.73
-2.468e-04,-0.79,-0.89
-2.449e-04,-0.79,-0.71
-2.430e-04,-0.81,-0.87
-2.411e-04,-0.77,-0.67
-2.391e-04,-0.71,-0.81
-2.372e-04,-0.77,-0.67
-2.353e-04,-0.71,-0.89
-2.334e-04,-0.83,-0.69
-2.315e-04,-0.81,-0.89
-2.295e-04,-0.73,-0.67
-2.276e-04,-0.73,-0.85
-2.257e-04,-0.81,-0.69
-2.238e-04,-0.77,-0.85
-2.219e-04,-0.75,-0.65
-2.199e-04,-0.69,-0.87
-2.180e-04,-0.83,-0.67
-2.161e-04,-0.75,-0.87
-2.142e-04,-0.83,-0.71
-2.123e-04,-0.81,-0.91
-2.103e-04,-0.83,-0.77
-2.084e-04,-0.87,-0.91
-2.065e-04,-0.79,-0.73
-2.046e-04,-0.81,-0.93
-2.027e-04,-0.79,-0.75
-2.007e-04,-0.83,-0.85
-1.988e-04,-0.77,-0.67
-1.969e-04,-0.75,-0.77
-1.950e-04,-0.69,-0.61
-1.931e-04,-0.67,-0.75
-1.911e-04,-0.67,-0.59
-1.892e-04,-0.69,-0.81
-1.873e-04,-0.71,-0.61
-1.854e-04,-0.75,-0.85
-1.835e-04,-0.75,-0.67
-1.815e-04,-0.75,-0.91
-1.796e-04,-0.89,-0.73
-1.777e-04,-0.83,-0.95
-1.758e-04,-0.91,-0.81
-1.739e-04,-0.87,-0.97
-1.719e-04,-0.91,-0.73
-1.700e-04,-0.79,-0.85
-1.681e-04,-0.71,-0.67
-1.662e-04,-0.79,-0.93
-1.643e-04,-0.83,-0.73
-1.623e-04,-0.79,-0.91
-1.604e-04,-0.79,-0.73
-1.585e-04,-0.87,-0.89
-1.566e-04,-0.79,-0.75
-1.547e-04,-0.87,-0.95
-1.527e-04,-0.85,-0.79
-1.508e-04,-0.93,-0.97
-1.489e-04,-0.87,-0.83
-1.470e-04,-0.89,-0.97
-1.451e-04,-0.89,-0.81
-1.431e-04,-0.87,-0.91
-1.412e-04,-0.75,-0.67
-1.393e-04,-0.71,-0.77
-1.374e-04,-0.71,-0.61
-1.355e-04,-0.61,-0.75
-1.335e-04,-0.71,-0.61
-1.316e-04,-0.69,-0.79
-1.297e-04,-0.75,-0.63
-1.278e-04,-0.67,-0.85
-1.259e-04,-0.81,-0.65
-1.239e-04,-0.81,-0.99
-1.220e-04,-0.93,-0.75
-1.201e-04,-0.93,-0.99
-1.182e-04,-0.83,-0.67
-1.163e-04,-0.71,-0.79
-1.143e-04,-0.69,-0.61
-1.124e-04,-0.69,-0.77
-1.105e-04,-0.69,-0.63
-1.086e-04,-0.73,-0.79
-1.067e-04,-0.69,-0.65
-1.047e-04,-0.75,-0.77
-1.028e-04,-0.63,-0.61
-1.009e-04,-0.69,-0.79
-9.897e-05,-0.71,-0.61
-9.705e-05,-0.71,-0.83
-9.513e-05,-0.65,-0.61
-9.321e-05,-0.75,-0.81
-9.129e-05,-0.75,-0.67
-8.937e-05,-0.71,-0.83
-8.745e-05,-0.69,-0.61
-8.553e-05,-0.79,-0.87
-8.361e-05,-0.79,-0.69
-8.169e-05,-0.77,-0.85
-7.977e-05,-0.83,-0.75
-7.785e-05,-0.77,-0.85
-7.593e-05,-0.75,-0.63
-7.401e-05,-0.65,-0.87
-7.209e-05,-0.79,-0.63
-7.017e-05,-0.81,-0.95
-6.825e-05,-0.87,-0.75
-6.633e-05,-0.89,-0.93
-6.441e-05,-0.79,-0.69
-6.249e-05,-0.77,-0.79
-6.057e-05,-0.67,-0.65
-5.865e-05,-0.71,-0.81
-5.673e-05,-0.69,-0.61
-5.481e-05,-0.69,-0.87
-5.289e-05,-0.73,-0.59
-5.097e-05,-0.83,-0.89
-4.905e-05,-0.71,-0.67
-4.713e-05,-0.85,-0.91
-4.521e-05,-0.83,-0.73
-4.329e-05,-0.79,-0.85
-4.137e-05,-0.79,-0.67
-3.945e-05,-0.73,-0.79
-3.753e-05,-0.75,-0.65
-3.561e-05,-0.71,-0.85
-3.369e-05,-0.81,-0.69
-3.177e-05,-0.75,-0.93
-2.985e-05,-0.89,-0.73
-2.793e-05,-0.73,-0.81
-2.601e-05,-0.71,-0.61
-2.409e-05,-0.75,-0.87
-2.217e-05,-0.79,-0.69
-2.025e-05,-0.83,-0.87
-1.833e-05,-0.81,-0.69
-1.641e-05,-0.77,-0.81
-1.449e-05,-0.69,-0.63
-1.257e-05,-0.73,-0.77
-1.065e-05,-0.65,-0.61
-8.725e-06,-0.71,-0.77
-6.805e-06,-0.61,-0.57
-4.885e-06,-0.77,-0.87
-2.965e-06,-0.73,-0.69
-1.045e-06,-0.83,-0.89
8.756e-07,-0.75,-0.71
2.796e-06,-0.79,-1.27
4.716e-06,-0.85,-0.73
6.636e-06,-1.25,-1.53
8.556e-06,0.17,2.99
1.048e-05,2.99,-2.09
1.240e-05,2.99,2.99
1.432e-05,-2.09,-2.09
1.624e-05,-2.09,-2.09
1.816e-05,-2.09,-2.09
2.008e-05,-2.09,-2.09
2.200e-05,-2.09,-2.09
2.392e-05,-2.09,-2.09
2.584e-05,-2.09,-2.09
2.776e-05,-2.09,-2.09
2.968e-05,-2.09,-2.09
3.160e-05,-2.09,-2.09
3.352e-05,-2.09,-2.09
3.544e-05,-2.09,-2.09
3.736e-05,-2.09,-2.09
3.928e-05,-2.09,-2.09
4.120e-05,-2.09,-2.09
4.312e-05,-2.09,-2.09
4.504e-05,-2.09,-2.09
4.696e-05,-2.09,-2.09
4.888e-05,-2.09,-2.09
5.080e-05,-1.63,-0.73
5.272e-05,-0.69,-0.75
5.464e-05,-0.00999998,0.37
5.656e-05,0.39,0.35
5.848e-05,0.55,0.71
6.040e-05,0.65,0.49
6.232e-05,0.57,0.69
6.424e-05,0.55,0.43
6.616e-05,0.47,0.57
6.808e-05,0.55,0.37
7.000e-05,0.41,0.55
7.192e-05,0.49,0.41
7.384e-05,0.45,0.53
7.576e-05,0.51,0.45
7.768e-05,0.55,0.69
7.960e-05,0.61,0.53
8.152e-05,0.65,0.69
8.344e-05,0.55,0.43
8.536e-05,0.53,0.61
8.728e-05,0.47,0.43
8.920e-05,0.59,0.61
9.112e-05,0.49,0.43
9.304e-05,0.53,0.59
9.496e-05,0.49,0.47
9.688e-05,0.57,0.59
9.880e-05,0.51,0.39
1.007e-04,0.53,0.57
1.026e-04,0.49,0.41
1.046e-04,0.51,0.59
1.065e-04,0.55,0.43
1.084e-04,0.47,0.61
1.103e-04,0.59,0.43
1.122e-04,0.53,0.67
1.142e-04,0.51,0.39
1.161e-04,0.41,0.55
1.180e-04,0.53,0.47
1.199e-04,0.51,0.61
1.218e-04,0.57,0.47
1.238e-04,0.51,0.61
1.257e-04,0.55,0.47
1.276e-04,0.51,0.61
1.295e-04,0.55,0.37
1.314e-04,0.43,0.59
1.334e-04,0.43,0.43
1.353e-04,0.53,0.57
1.372e-04,0.49,0.39
1.391e-04,0.49,0.53
1.410e-04,0.41,0.33
1.430e-04,0.43,0.47
1.449e-04,0.37,0.29
1.468e-04,0.37,0.45
1.487e-04,0.33,0.33
1.506e-04,0.43,0.49
1.526e-04,0.43,0.41
1.545e-04,0.53,0.57
1.564e-04,0.53,0.39
1.583e-04,0.51,0.59
1.602e-04,0.45,0.31
1.622e-04,0.33,0.49
1.641e-04,0.39,0.31
1.660e-04,0.35,0.49
1.679e-04,0.45,0.35
1.698e-04,0.41,0.51
1.718e-04,0.49,0.41
1.737e-04,0.47,0.53
1.756e-04,0.53,0.39
1.775e-04,0.45,0.57
1.794e-04,0.53,0.43
1.814e-04,0.53,0.59
1.833e-04,0.47,0.33
1.852e-04,0.41,0.51
1.871e-04,0.45,0.41
1.890e-04,0.55,0.57
1.910e-04,0.45,0.43
1.929e-04,0.57,0.59
1.948e-04,0.51,0.29
1.967e-04,0.41,0.57
1.986e-04,0.33,0.25
2.006e-04,0.35,0.47
2.025e-04,0.41,0.33
2.044e-04,0.39,0.49
2.063e-04,0.47,0.39
2.082e-04,0.49,0.61
2.102e-04,0.55,0.45
2.121e-04,0.49,0.57
2.140e-04,0.59,0.47
2.159e-04,0.49,0.61
2.178e-04,0.57,0.47
2.198e-04,0.49,0.59
2.217e-04,0.55,0.41
2.236e-04,0.45,0.59
2.255e-04,0.45,0.33
2.275e-04,0.37,0.51
2.294e-04,0.39,0.33
2.313e-04,0.41,0.45
2.332e-04,0.39,0.35
2.351e-04,0.49,0.53
2.371e-04,0.43,0.43
2.390e-04,0.57,0.63
2.409e-04,0.55,0.47
2.428e-04,0.55,0.63
2.447e-04,0.55,0.33
2.467e-04,0.47,0.61
2.486e-04,0.37,0.33
2.505e-04,0.43,0.51
2.524e-04,0.45,0.39
2.543e-04,0.49,0.57
2.563e-04,0.53,0.39
2.582e-04,0.45,0.57
2.601e-04,0.47,0.37
2.620e-04,0.39,0.49
2.639e-04,0.47,0.37
2.659e-04,0.45,0.55
2.678e-04,0.49,0.41
2.697e-04,0.53,0.61
2.716e-04,0.53,0.39
2.735e-04,0.47,0.61
2.755e-04,0.55,0.43
2.774e-04,0.53,0.61
2.793e-04,0.45,0.39
2.812e-04,0.51,0.55
2.831e-04,0.45,0.41
2.851e-04,0.51,0.53
2.870e-04,0.45,0.35
2.889e-04,0.45,0.55
2.908e-04,0.37,0.35
2.927e-04,0.49,0.51
2.947e-04,0.43,0.39
2.966e-04,0.49,0.55
2.985e-04,0.41,0.37
3.004e-04,0.49,0.55
3.023e-04,0.47,0.35
3.043e-04,0.43,0.53
3.062e-04,0.43,0.31
3.081e-04,0.33,0.45
3.100e-04,0.39,0.27
3.119e-04,0.33,0.49
3.139e-04,0.51,0.37
3.158e-04,0.43,0.55
3.177e-04,0.43,0.27
3.196e-04,0.33,0.47
3.215e-04,0.35,0.29
3.235e-04,0.37,0.49
3.254e-04,0.47,0.41
3.273e-04,0.47,0.57
3.292e-04,0.53,0.47
3.311e-04,0.57,0.63
3.331e-04,0.51,0.41
3.350e-04,0.53,0.57
3.369e-04,0.41,0.41
3.388e-04,0.55,0.59
3.407e-04,0.49,0.39
3.427e-04,0.49,0.55
3.446e-04,0.43,0.27
3.465e-04,0.37,0.49
3.484e-04,0.35,0.27
3.503e-04,0.35,0.41
3.523e-04,0.39,0.33
3.542e-04,0.41,0.51
3.561e-04,0.47,0.35
3.580e-04,0.45,0.53
3.599e-04,0.43,0.31
3.619e-04,0.37,0.47
3.638e-04,0.39,0.27
3.657e-04,0.31,0.43
3.676e-04,0.37,0.29
3.695e-04,0.39,0.51
3.715e-04,0.45,0.33
3.734e-04,0.39,0.49
3.753e-04,0.45,0.25
3.772e-04,0.39,0.51
3.791e-04,0.27,0.25
3.811e-04,0.37,0.45
3.830e-04,0.35,0.35
3.849e-04,0.49,0.57
3.868e-04,0.53,0.37
3.887e-04,0.49,0.59
3.907e-04,0.39,0.39
3.926e-04,0.47,0.51
3.945e-04,0.41,0.35
3.964e-04,0.41,0.49
3.983e-04,0.39,0.35
4.003e-04,0.43,0.47
4.022e-04,0.43,0.33
4.041e-04,0.37,0.51
4.060e-04,0.47,0.25
4.079e-04,0.31,0.51
4.099e-04,0.35,0.27
4.118e-04,0.31,0.45
4.137e-04,0.41,0.29
4.156e-04,0.31,0.43
4.175e-04,0.41,0.31
4.195e-04,0.35,0.49
4.214e-04,0.45,0.35
4.233e-04,0.43,0.51
4.252e-04,0.43,0.33
4.271e-04,0.37,0.51
4.291e-04,0.45,0.35
4.310e-04,0.43,0.49
4.329e-04,0.43,0.39
4.348e-04,0.49,0.53
4.367e-04,0.39,0.27
4.387e-04,0.39,0.47
4.406e-04,0.31,0.23
4.425e-04,0.31,0.37
4.444e-04,0.33,0.27
4.463e-04,0.41,0.49
4.483e-04,0.43,0.37
4.502e-04,0.43,0.51
4.521e-04,0.45,0.27
4.540e-04,0.35,0.51
4.559e-04,0.35,0.19
4.579e-04,0.25,0.37
4.598e-04,0.27,0.17
4.617e-04,0.23,0.37
4.636e-04,0.35,0.27
4.655e-04,0.31,0.39
4.675e-04,0.37,0.29
4.694e-04,0.35,0.41
4.713e-04,0.37,0.21
4.732e-04,0.33,0.43
4.751e-04,0.25,0.21
4.771e-04,0.29,0.35
4.790e-04,0.27,0.23
4.809e-04,0.39,0.47
4.828e-04,0.39,0.21
4.847e-04,0.41,0.49
4.867e-04,0.27,0.21
4.886e-04,0.31,0.37
4.905e-04,0.25,0.21
4.924e-04,0.35,0.39
4.943e-04,0.23,0.19
4.963e-04,0.25,0.33
4.982e-04,0.25,0.17
5.001e-04,0.25,0.39
5.020e-04,0.37,0.27
5.039e-04,0.31,0.41
5.059e-04,0.41,0.33
5.078e-04,0.35,0.47
5.097e-04,0.47,0.35
5.116e-04,0.39,0.47
5.135e-04,0.43,0.25
5.155e-04,0.37,0.45
5.174e-04,0.31,0.23
5.193e-04,0.33,0.39
5.212e-04,0.33,0.21
5.231e-04,0.29,0.39
5.251e-04,0.25,0.21
5.270e-04,0.35,0.39
5.289e-04,0.25,0.19
5.308e-04,0.29,0.35
5.327e-04,0.25,0.15
5.347e-04,0.27,0.35
5.366e-04,0.19,0.17
5.385e-04,0.31,0.35
5.404e-04,0.29,0.19
5.424e-04,0.27,0.33
5.443e-04,0.29,0.21
5.462e-04,0.31,0.39
5.481e-04,0.33,0.23
5.500e-04,0.33,0.41
5.520e-04,0.31,0.19
5.539e-04,0.23,0.33
5.558e-04,0.29,0.21
5.577e-04,0.29,0.41
5.596e-04,0.37,0.25
5.616e-04,0.27,0.39
5.635e-04,0.35,0.23
5.654e-04,0.29,0.39
5.673e-04,0.29,0.19
5.692e-04,0.23,0.35
5.712e-04,0.29,0.15
5.731e-04,0.27,0.35
5.750e-04,0.19,0.15
5.769e-04,0.33,0.37
5.788e-04,0.19,0.09
5.808e-04,0.17,0.25
5.827e-04,0.17,0.07
5.846e-04,0.21,0.29
5.865e-04,0.09,0.07
5.884e-04,0.19,0.23
5.904e-04,0.11,0.07
5.923e-04,0.17,0.25
5.942e-04,0.17,0.11
5.961e-04,0.17,0.25
5.980e-04,0.21,0.17
6.000e-04,0.25,0.35
6.019e-04,0.33,0.21
6.038e-04,0.27,0.41
6.057e-04,0.39,0.27
6.076e-04,0.29,0.45
6.096e-04,0.43,0.29
6.115e-04,0.33,0.43
6.134e-04,0.41,0.23
6.153e-04,0.27,0.41
6.172e-04,0.31,0.19
6.192e-04,0.25,0.37
6.211e-04,0.23,0.15
6.230e-04,0.27,0.39
6.249e-04,0.33,0.21
6.268e-04,0.31,0.41
6.288e-04,0.23,0.21
6.307e-04,0.37,0.41
6.326e-04,0.33,0.21
6.345e-04,0.35,0.41
6.364e-04,0.23,0.13
6.384e-04,0.25,0.31
6.403e-04,0.17,-0.00999998
6.422e-04,0.11,0.23
6.441e-04,0.05,-0.00999998
6.460e-04,0.17,0.23
6.480e-04,0.17,0.09
6.499e-04,0.23,0.31
6.518e-04,0.25,0.07
6.537e-04,0.09,0.27
6.556e-04,0.17,0.09
6.576e-04,0.15,0.31
6.595e-04,0.29,0.11
6.614e-04,0.15,0.31
6.633e-04,0.21,0.03
6.652e-04,0.19,0.27
6.672e-04,0.09,0.03
6.691e-04,0.15,0.29
6.710e-04,0.23,0.15
6.729e-04,0.23,0.29
6.748e-04,0.19,0.11
6.768e-04,0.23,0.27
6.787e-04,0.17,0.05
6.806e-04,0.19,0.23
6.825e-04,0.09,0.09
6.844e-04,0.21,0.23
6.864e-04,0.15,0.11
6.883e-04,0.29,0.35
6.902e-04,0.25,0.19
6.921e-04,0.29,0.33
6.940e-04,0.23,0.13
6.960e-04,0.27,0.33
6.979e-04,0.19,0.11
6.998e-04,0.19,0.25
7.017e-04,0.21,0.11
7.036e-04,0.15,0.25
7.056e-04,0.23,0.13
7.075e-04,0.17,0.31
7.094e-04,0.29,0.07
7.113e-04,0.15,0.31
7.132e-04,0.17,0.09
7.152e-04,0.23,0.33
7.171e-04,0.29,0.13
7.190e-04,0.21,0.33
7.209e-04,0.17,0.05
7.228e-04,0.15,0.21
7.248e-04,0.11,0.07
7.267e-04,0.27,0.33
7.286e-04,0.17,0.05
7.305e-04,0.17,0.23
7.324e-04,0.07,0.03
7.344e-04,0.15,0.17
7.363e-04,0.07,-0.00999998
7.382e-04,0.11,0.15
7.401e-04,0.07,0.05
7.420e-04,0.21,0.23
7.440e-04,0.15,0.11
7.459e-04,0.25,0.31
7.478e-04,0.25,0.17
7.497e-04,0.21,0.33
7.516e-04,0.25,0.09
7.536e-04,0.13,0.27
7.555e-04,0.21,0.07
7.574e-04,0.19,0.27
7.593e-04,0.15,-0.07
7.612e-04,0.01,0.19
7.632e-04,-0.00999998,-0.09
7.651e-04,0.03,0.15
7.670e-04,0.07,0.03
7.689e-04,0.11,0.19
7.708e-04,0.09,-0.05
7.728e-04,0.01,0.13
7.747e-04,-0.00999998,-0.05
7.766e-04,0.15,0.23
7.785e-04,0.13,0.11
7.804e-04,0.27,0.31
7.824e-04,0.19,0.09
7.843e-04,0.23,0.29
7.862e-04,0.11,0.09
7.881e-04,0.19,0.21
7.900e-04,0.15,0.09
7.920e-04,0.15,0.21
7.939e-04,0.17,0.05
7.958e-04,0.13,0.25
7.977e-04,0.19,0.07
7.996e-04,0.15,0.25
8.016e-04,0.17,0.05
8.035e-04,0.11,0.21
8.054e-04,0.15,0.03
8.073e-04,0.07,0.25
8.092e-04,0.23,0.15
8.112e-04,0.27,0.33
8.131e-04,0.29,0.13
8.150e-04,0.21,0.33
8.169e-04,0.21,0.11
8.188e-04,0.19,0.27
8.208e-04,0.17,0.03
8.227e-04,0.15,0.23
8.246e-04,0.03,-0.00999998
8.265e-04,0.09,0.13
8.284e-04,0.03,-0.03
8.304e-04,0.11,0.13
8.323e-04,0.01,-0.11
8.342e-04,-0.03,0.07
8.361e-04,-0.03,-0.07
8.380e-04,0.07,0.15
8.400e-04,0.05,-0.03
8.419e-04,0.09,0.15
8.438e-04,0.05,-0.00999998
8.457e-04,0.07,0.17
8.476e-04,0.11,0.03
8.496e-04,0.09,0.19
8.515e-04,0.11,-0.03
8.534e-04,0.03,0.13
8.553e-04,0.05,-0.07
8.573e-04,-0.03,0.11
8.592e-04,0.05,-0.07
8.611e-04,-0.03,0.07
8.630e-04,0.03,-0.07
8.649e-04,-0.00999998,0.13
8.669e-04,0.07,-0.03
8.688e-04,0.05,0.13
8.707e-04,0.01,-0.05
8.726e-04,0.01,0.13
8.745e-04,0.05,-0.07
8.765e-04,0.07,0.15
8.784e-04,-0.05,-0.07
8.803e-04,0.03,0.11
8.822e-04,0.03,0.03
8.841e-04,0.15,0.19
8.861e-04,0.07,0.01
8.880e-04,0.13,0.17
8.899e-04,0.07,0.01
8.918e-04,0.13,0.19
8.937e-04,0.07,-0.09
8.957e-04,-0.03,0.13
8.976e-04,-0.00999998,-0.11
8.995e-04,-0.05,0.07
9.014e-04,0.05,-0.09
9.033e-04,-0.05,0.07
9.053e-04,0.01,-0.09
9.072e-04,-0.05,0.03
9.091e-04,-0.00999998,-0.11
9.110e-04,0.03,0.11
9.129e-04,0.05,-0.07
9.149e-04,0.03,0.09
9.168e-04,0.01,-0.11
9.187e-04,-0.03,0.07
9.206e-04,-0.05,-0.07
9.225e-04,0.03,0.07
9.245e-04,-0.03,-0.05
9.264e-04,0.03,0.07
9.283e-04,-0.03,-0.05
9.302e-04,0.07,0.15
9.321e-04,0.07,-0.00999998
9.341e-04,0.15,0.19
9.360e-04,0.01,-0.17
9.379e-04,-0.03,0.11
9.398e-04,-0.13,-0.17
9.417e-04,-0.05,0.01
9.437e-04,-0.03,-0.11
9.456e-04,-0.07,0.03
9.475e-04,-0.00999998,-0.13
9.494e-04,-0.11,0.05
9.513e-04,-0.00999998,-0.11
9.533e-04,-0.07,0.03
9.552e-04,-0.00999998,-0.15
9.571e-04,-0.07,0.01
9.590e-04,-0.07,-0.17
9.609e-04,-0.09,0.05
9.629e-04,0.03,-0.05
9.648e-04,0.03,0.09
9.667e-04,-0.00999998,-0.05
9.686e-04,0.13,0.17
9.705e-04,0.05,-0.11
9.725e-04,-0.03,0.09
9.744e-04,0.01,-0.09
9.763e-04,0.07,0.11
9.782e-04,-0.07,-0.11
9.801e-04,-0.00999998,0.05
9.821e-04,-0.00999998,-0.05
9.840e-04,0.07,0.09
9.859e-04,0.03,-0.11
9.878e-04,-0.03,0.09
9.897e-04,-0.07,-0.17
9.917e-04,-0.11,-0.00999998
9.936e-04,-0.07,-0.21
9.955e-04,-0.15,-0.05
9.974e-04,-0.11,-0.21
9.993e-04,-0.13,-0.03
1.001e-03,-0.09,-0.19
1.003e-03,-0.15,-0.05
1.005e-03,-0.09,-0.23
1.007e-03,-0.19,-0.07
1.009e-03,-0.09,-0.13
1.011e-03,-0.07,0.01
1.013e-03,-0.05,-0.11
1.015e-03,-0.03,0.05
1.017e-03,-0.03,-0.05
1.019e-03,0.07,0.11
1.020e-03,-0.05,-0.21
1.022e-03,-0.05,0.01
1.024e-03,-0.19,-0.25
1.026e-03,-0.13,-0.07
1.028e-03,-0.15,-0.17
1.030e-03,-0.03,0.03
1.032e-03,-0.07,-0.09
1.034e-03,-0.00999998,0.05
1.036e-03,-0.07,-0.15
1.038e-03,-0.07,-0.00999998
1.040e-03,-0.03,-0.17
1.042e-03,-0.00999998,0.05
1.044e-03,-0.11,-0.17
1.045e-03,-0.09,-0.03
1.047e-03,-0.07,-0.19
1.049e-03,-0.17,-0.03
1.051e-03,-0.05,-0.19
1.053e-03,-0.17,-0.00999998
1.055e-03,-0.07,-0.21
1.057e-03,-0.15,-0.07
1.059e-03,-0.11,-0.21
1.061e-03,-0.13,-0.00999998
1.063e-03,-0.07,-0.21
1.065e-03,-0.09,-0.00999998
1.067e-03,-0.15,-0.23
1.068e-03,-0.13,-0.07
1.070e-03,-0.17,-0.21
1.072e-03,-0.11,-0.07
1.074e-03,-0.19,-0.21
1.076e-03,-0.03,-0.00999998
1.078e-03,-0.17,-0.19
1.080e-03,-0.07,-0.00999998
1.082e-03,-0.07,-0.15
1.084e-03,-0.07,0.01
1.086e-03,-0.07,-0.25
1.088e-03,-0.09,-0.00999998
1.090e-03,-0.17,-0.23
1.092e-03,-0.13,-0.03
1.093e-03,-0.05,-0.13
1.095e-03,-0.09,-0.00999998
1.097e-03,-0.03,-0.15
1.099e-03,-0.13,-0.00999998
1.101e-03,-0.07,-0.21
1.103e-03,-0.15,-0.05
1.105e-03,-0.11,-0.17
1.107e-03,-0.11,-0.03
1.109e-03,-0.05,-0.21
1.111e-03,-0.19,-0.00999998
1.113e-03,-0.13,-0.23
1.115e-03,-0.13,-0.00999998
1.116e-03,-0.05,-0.13
1.118e-03,-0.00999998,0.05
1.120e-03,-0.09,-0.15
1.122e-03,-0.03,-0.00999998
1.124e-03,-0.07,-0.11
1.126e-03,-0.00999998,0.01
1.128e-03,-0.09,-0.11
1.130e-03,-0.03,0.05
1.132e-03,-0.03,-0.15
1.134e-03,0.03,0.09
1.136e-03,-0.11,-0.21
1.138e-03,-0.11,-0.00999998
1.140e-03,-0.13,-0.21
1.141e-03,-0.17,-0.05
1.143e-03,-0.07,-0.15
1.145e-03,-0.07,0.03
1.147e-03,-0.00999998,-0.15
1.149e-03,-0.13,0.01
1.151e-03,-0.07,-0.29
1.153e-03,-0.17,-0.05
1.155e-03,-0.19,-0.29
1.157e-03,-0.15,-0.03
1.159e-03,-0.11,-0.35
1.161e-03,-0.27,-0.07
1.163e-03,-0.25,-0.31
1.164e-03,-0.21,-0.15
1.166e-03,-0.27,-0.35
1.168e-03,-0.23,-0.19
1.170e-03,-0.31,-0.33
1.172e-03,-0.13,-0.07
1.174e-03,-0.13,-0.17
1.176e-03,-0.09,-0.03
1.178e-03,-0.15,-0.35
1.180e-03,-0.23,-0.09
1.182e-03,-0.29,-0.33
1.184e-03,-0.21,-0.13
1.186e-03,-0.19,-0.33
1.188e-03,-0.23,-0.13
1.189e-03,-0.19,-0.35
1.191e-03,-0.29,-0.15
1.193e-03,-0.25,-0.37
1.195e-03,-0.31,-0.21
1.197e-03,-0.27,-0.41
1.199e-03,-0.35,-0.21
1.201e-03,-0.19,-0.29
1.203e-03,-0.21,-0.11
1.205e-03,-0.15,-0.21
1.207e-03,-0.19,-0.07
1.209e-03,-0.13,-0.23
1.211e-03,-0.13,-0.05
1.212e-03,-0.19,-0.31
1.214e-03,-0.23,-0.15
1.216e-03,-0.25,-0.31
1.218e-03,-0.23,-0.17
1.220e-03,-0.23,-0.37
1.222e-03,-0.21,-0.15
1.224e-03,-0.37,-0.39
1.226e-03,-0.25,-0.23
1.228e-03,-0.29,-0.37
1.230e-03,-0.25,-0.11
1.232e-03,-0.15,-0.19
1.234e-03,-0.05,0.01
1.236e-03,-0.13,-0.35
1.237e-03,-0.15,-0.09
1.239e-03,-0.31,-0.39
1.241e-03,-0.31,-0.25
1.243e-03,-0.29,-0.39
1.245e-03,-0.31,-0.19
1.247e-03,-0.21,-0.31
1.249e-03,-0.27,-0.17
1.251e-03,-0.19,-0.27
1.253e-03,-0.17,-0.11
1.255e-03,-0.13,-0.33
1.257e-03,-0.27,-0.11
1.259e-03,-0.23,-0.33
1.260e-03,-0.19,-0.15
1.262e-03,-0.31,-0.47
1.264e-03,-0.33,-0.25
1.266e-03,-0.43,-0.45
1.268e-03,-0.25,-0.21
1.270e-03,-0.31,-0.35
1.272e-03,-0.21,-0.17
1.274e-03,-0.23,-0.35
1.276e-03,-0.25,-0.15
1.278e-03,-0.33,-0.43
1.280e-03,-0.33,-0.23
1.282e-03,-0.37,-0.39
1.284e-03,-0.25,-0.21
1.285e-03,-0.29,-0.37
1.287e-03,-0.29,-0.23
1.289e-03,-0.29,-0.35
1.291e-03,-0.25,-0.15
1.293e-03,-0.21,-0.29
1.295e-03,-0.25,-0.17
1.297e-03,-0.19,-0.37
1.299e-03,-0.27,-0.17
1.301e-03,-0.27,-0.39
1.303e-03,-0.31,-0.21
1.305e-03,-0.25,-0.33
1.307e-03,-0.25,-0.17
1.308e-03,-0.25,-0.31
1.310e-03,-0.17,-0.11
1.312e-03,-0.19,-0.33
1.314e-03,-0.23,-0.15
1.316e-03,-0.27,-0.31
1.318e-03,-0.19,-0.17
1.320e-03,-0.31,-0.45
1.322e-03,-0.35,-0.25
1.324e-03,-0.37,-0.41
1.326e-03,-0.29,-0.21
1.328e-03,-0.25,-0.31
1.330e-03,-0.15,-0.13
1.332e-03,-0.21,-0.43
1.333e-03,-0.31,-0.19
1.335e-03,-0.35,-0.45
1.337e-03,-0.41,-0.31
1.339e-03,-0.35,-0.43
1.341e-03,-0.39,-0.25
1.343e-03,-0.27,-0.37
1.345e-03,-0.31,-0.19
1.347e-03,-0.23,-0.35
1.349e-03,-0.29,-0.19
1.351e-03,-0.21,-0.35
1.353e-03,-0.29,-0.19
1.355e-03,-0.21,-0.33
1.356e-03,-0.29,-0.17
1.358e-03,-0.27,-0.41
1.360e-03,-0.35,-0.23
1.362e-03,-0.37,-0.43
1.364e-03,-0.35,-0.29
1.366e-03,-0.37,-0.41
1.368e-03,-0.25,-0.21
1.370e-03,-0.35,-0.39
1.372e-03,-0.29,-0.27
1.374e-03,-0.35,-0.41
1.376e-03,-0.31,-0.29
1.378e-03,-0.41,-0.45
1.380e-03,-0.33,-0.23
1.381e-03,-0.29,-0.33
1.383e-03,-0.21,-0.15
1.385e-03,-0.25,-0.31
1.387e-03,-0.27,-0.15
1.389e-03,-0.19,-0.37
1.391e-03,-0.31,-0.15
1.393e-03,-0.27,-0.37
1.395e-03,-0.33,-0.21
1.397e-03,-0.25,-0.35
1.399e-03,-0.31,-0.19
1.401e-03,-0.23,-0.35
1.403e-03,-0.29,-0.19
1.404e-03,-0.25,-0.37
1.406e-03,-0.27,-0.19
1.408e-03,-0.33,-0.41
1.410e-03,-0.35,-0.29
1.412e-03,-0.37,-0.43
1.414e-03,-0.33,-0.23
1.416e-03,-0.29,-0.41
1.418e-03,-0.29,-0.23
1.420e-03,-0.39,-0.45
1.422e-03,-0.35,-0.23
1.424e-03,-0.31,-0.37
1.426e-03,-0.27,-0.19
1.428e-03,-0.25,-0.31
1.429e-03,-0.21,-0.17
1.431e-03,-0.25,-0.41
1.433e-03,-0.33,-0.19
1.435e-03,-0.35,-0.43
1.437e-03,-0.37,-0.25
1.439e-03,-0.21,-0.29
1.441e-03,-0.19,-0.07
1.443e-03,-0.17,-0.39
1.445e-03,-0.29,-0.13
1.447e-03,-0.33,-0.41
1.449e-03,-0.31,-0.19
1.451e-03,-0.25,-0.39
1.452e-03,-0.37,-0.23
1.454e-03,-0.33,-0.43
1.456e-03,-0.37,-0.29
1.458e-03,-0.33,-0.39
1.460e-03,-0.25,-0.21
1.462e-03,-0.35,-0.45
1.464e-03,-0.35,-0.29
1.466e-03,-0.35,-0.47
1.468e-03,-0.31,-0.25
1.470e-03,-0.43,-0.47
1.472e-03,-0.31,-0.27
1.474e-03,-0.35,-0.39
1.476e-03,-0.29,-0.25
1.477e-03,-0.35,-0.43
1.479e-03,-0.33,-0.27
1.481e-03,-0.37,-0.43
1.483e-03,-0.33,-0.23
1.485e-03,-0.27,-0.41
1.487e-03,-0.33,-0.25
1.489e-03,-0.33,-0.43
1.491e-03,-0.35,-0.29
1.493e-03,-0.35,-0.43
1.495e-03,-0.39,-0.29
1.497e-03,-0.35,-0.45
1.499e-03,-0.37,-0.31
1.500e-03,-0.33,-0.41
1.502e-03,-0.33,-0.27
1.504e-03,-0.35,-0.45
1.506e-03,-0.31,-0.25
1.508e-03,-0.33,-0.41
1.510e-03,-0.31,-0.21
1.512e-03,-0.29,-0.39
1.514e-03,-0.25,-0.25
1.516e-03,-0.35,-0.51
1.518e-03,-0.33,-0.27
1.520e-03,-0.51,-0.57
1.522e-03,-0.49,-0.39
1.524e-03,-0.47,-0.49
1.525e-03,-0.35,-0.29
1.527e-03,-0.37,-0.45
1.529e-03,-0.35,-0.29
1.531e-03,-0.41,-0.51
1.533e-03,-0.43,-0.35
1.535e-03,-0.37,-0.45
1.537e-03,-0.37,-0.27
1.539e-03,-0.35,-0.47
1.541e-03,-0.39,-0.31
1.543e-03,-0.37,-0.47
1.545e-03,-0.37,-0.29
1.547e-03,-0.33,-0.47
1.548e-03,-0.37,-0.29
1.550e-03,-0.39,-0.45
1.552e-03,-0.41,-0.25
1.554e-03,-0.27,-0.47
1.556e-03,-0.29,-0.21
1.558e-03,-0.45,-0.51
1.560e-03,-0.39,-0.35
1.562e-03,-0.43,-0.53
1.564e-03,-0.37,-0.33
1.566e-03,-0.53,-0.59
1.568e-03,-0.47,-0.41
1.570e-03,-0.57,-0.59
1.572e-03,-0.47,-0.45
1.573e-03,-0.53,-0.57
1.575e-03,-0.39,-0.29
1.577e-03,-0.31,-0.43
1.579e-03,-0.31,-0.23
1.581e-03,-0.37,-0.49
1.583e-03,-0.41,-0.29
1.585e-03,-0.43,-0.51
1.587e-03,-0.43,-0.37
1.589e-03,-0.41,-0.49
1.591e-03,-0.37,-0.23
1.593e-03,-0.29,-0.43
1.595e-03,-0.39,-0.25
1.596e-03,-0.31,-0.53
1.598e-03,-0.41,-0.27
1.600e-03,-0.47,-0.55
1.602e-03,-0.49,-0.43
1.604e-03,-0.47,-0.53
1.606e-03,-0.43,-0.35
1.608e-03,-0.39,-0.47
1.610e-03,-0.33,-0.31
1.612e-03,-0.45,-0.47
1.614e-03,-0.35,-0.25
1.616e-03,-0.31,-0.49
1.618e-03,-0.31,-0.25
1.620e-03,-0.47,-0.53
1.621e-03,-0.43,-0.31
1.623e-03,-0.39,-0.47
1.625e-03,-0.37,-0.29
1.627e-03,-0.43,-0.59
1.629e-03,-0.45,-0.35
1.631e-03,-0.47,-0.55
1.633e-03,-0.49,-0.41
1.635e-03,-0.43,-0.61
1.637e-03,-0.53,-0.39
1.639e-03,-0.49,-0.59
1.641e-03,-0.53,-0.43
1.643e-03,-0.49,-0.59
1.645e-03,-0.53,-0.43
1.646e-03,-0.45,-0.53
1.648e-03,-0.37,-0.31
1.650e-03,-0.47,-0.55
1.652e-03,-0.51,-0.41
1.654e-03,-0.47,-0.55
1.656e-03,-0.41,-0.35
1.658e-03,-0.43,-0.49
1.660e-03,-0.39,-0.35
1.662e-03,-0.43,-0.51
1.664e-03,-0.41,-0.35
1.666e-03,-0.51,-0.53
1.668e-03,-0.39,-0.37
1.669e-03,-0.47,-0.51
1.671e-03,-0.35,-0.33
1.673e-03,-0.43,-0.47
1.675e-03,-0.35,-0.31
1.677e-03,-0.41,-0.59
1.679e-03,-0.49,-0.37
1.681e-03,-0.53,-0.63
1.683e-03,-0.57,-0.47
1.685e-03,-0.53,-0.63
1.687e-03,-0.57,-0.49
1.689e-03,-0.51,-0.61
1.691e-03,-0.55,-0.45
1.693e-03,-0.51,-0.59
1.694e-03,-0.49,-0.35
1.696e-03,-0.39,-0.59
1.698e-03,-0.53,-0.35
1.700e-03,-0.45,-0.55
1.702e-03,-0.49,-0.41
1.704e-03,-0.49,-0.55
1.706e-03,-0.41,-0.39
1.708e-03,-0.53,-0.57
1.710e-03,-0.43,-0.41
1.712e-03,-0.55,-0.59
1.714e-03,-0.47,-0.41
1.716e-03,-0.47,-0.57
1.717e-03,-0.43,-0.39
1.719e-03,-0.53,-0.55
1.721e-03,-0.45,-0.39
1.723e-03,-0.49,-0.53
1.725e-03,-0.39,-0.33
1.727e-03,-0.39,-0.47
1.729e-03,-0.37,-0.31
1.731e-03,-0.37,-0.45
1.733e-03,-0.37,-0.25
1.735e-03,-0.31,-0.49
1.737e-03,-0.43,-0.29
1.739e-03,-0.41,-0.53
1.741e-03,-0.49,-0.37
1.742e-03,-0.43,-0.55
1.744e-03,-0.49,-0.37
1.746e-03,-0.47,-0.57
1.748e-03,-0.51,-0.35
1.750e-03,-0.39,-0.53
1.752e-03,-0.39,-0.33
1.754e-03,-0.47,-0.53
1.756e-03,-0.47,-0.37
1.758e-03,-0.43,-0.47
1.760e-03,-0.35,-0.33
1.762e-03,-0.45,-0.53
1.764e-03,-0.35,-0.33
1.765e-03,-0.51,-0.57
1.767e-03,-0.45,-0.39
1.769e-03,-0.49,-0.59
1.771e-03,-0.45,-0.43
1.773e-03,-0.53,-0.59
1.775e-03,-0.45,-0.41
1.777e-03,-0.49,-0.55
1.779e-03,-0.45,-0.35
1.781e-03,-0.37,-0.49
1.783e-03,-0.43,-0.35
1.785e-03,-0.39,-0.49
1.787e-03,-0.41,-0.33
1.789e-03,-0.37,-0.49
1.790e-03,-0.45,-0.35
1.792e-03,-0.39,-0.53
1.794e-03,-0.49,-0.35
1.796e-03,-0.41,-0.53
1.798e-03,-0.47,-0.37
1.800e-03,-0.47,-0.53
1.802e-03,-0.45,-0.37
1.804e-03,-0.45,-0.53
1.806e-03,-0.41,-0.37
1.808e-03,-0.49,-0.51
1.810e-03,-0.35,-0.33
1.812e-03,-0.45,-0.59
1.813e-03,-0.49,-0.37
1.815e-03,-0.55,-0.65
1.817e-03,-0.55,-0.47
1.819e-03,-0.63,-0.63
1.821e-03,-0.45,-0.39
1.823e-03,-0.47,-0.55
1.825e-03,-0.41,-0.37
1.827e-03,-0.51,-0.59
1.829e-03,-0.49,-0.43
1.831e-03,-0.51,-0.57
1.833e-03,-0.49,-0.39
1.835e-03,-0.41,-0.51
1.837e-03,-0.43,-0.35
1.838e-03,-0.39,-0.51
1.840e-03,-0.45,-0.33
1.842e-03,-0.41,-0.55
1.844e-03,-0.49,-0.41
1.846e-03,-0.47,-0.65
1.848e-03,-0.53,-0.45
1.850e-03,-0.59,-0.69
1.852e-03,-0.53,-0.49
1.854e-03,-0.63,-0.67
1.856e-03,-0.59,-0.55
1.858e-03,-0.63,-0.65
1.860e-03,-0.51,-0.45
1.861e-03,-0.53,-0.55
1.863e-03,-0.39,-0.35
1.865e-03,-0.47,-0.55
1.867e-03,-0.41,-0.39
1.869e-03,-0.43,-0.55
1.871e-03,-0.41,-0.37
1.873e-03,-0.51,-0.59
1.875e-03,-0.49,-0.43
1.877e-03,-0.53,-0.63
1.879e-03,-0.57,-0.47
1.881e-03,-0.55,-0.67
1.883e-03,-0.57,-0.43
1.885e-03,-0.43,-0.55
1.886e-03,-0.51,-0.39
1.888e-03,-0.45,-0.55
1.890e-03,-0.49,-0.39
1.892e-03,-0.45,-0.63
1.894e-03,-0.59,-0.41
1.896e-03,-0.55,-0.63
1.898e-03,-0.57,-0.47
1.900e-03,-0.55,-0.65
1.902e-03,-0.55,-0.51
1.904e-03,-0.57,-0.63
1.906e-03,-0.53,-0.41
1.908e-03,-0.47,-0.59
1.909e-03,-0.47,-0.41
1.911e-03,-0.57,-0.63
1.913e-03,-0.55,-0.49
1.915e-03,-0.59,-0.61
1.917e-03,-0.49,-0.47
1.919e-03,-0.57,-0.61
1.921e-03,-0.53,-0.49
1.923e-03,-0.55,-0.61
1.925e-03,-0.49,-0.41
1.927e-03,-0.47,-0.53
1.929e-03,-0.49,-0.41
1.931e-03,-0.43,-0.65
1.933e-03,-0.51,-0.41
1.934e-03,-0.57,-0.67
1.936e-03,-0.67,-0.53
1.938e-03,-0.55,-0.69
1.940e-03,-0.65,-0.53
1.942e-03,-0.55,-0.65
1.944e-03,-0.57,-0.41
1.946e-03,-0.45,-0.61
1.948e-03,-0.53,-0.41
1.950e-03,-0.49,-0.63
1.952e-03,-0.49,-0.43
1.954e-03,-0.63,-0.65
1.956e-03,-0.55,-0.53
1.957e-03,-0.65,-0.65
1.959e-03,-0.55,-0.53
1.961e-03,-0.59,-0.65
1.963e-03,-0.53,-0.49
1.965e-03,-0.63,-0.65
1.967e-03,-0.51,-0.45
1.969e-03,-0.51,-0.57
1.971e-03,-0.47,-0.43
1.973e-03,-0.53,-0.69
1.975e-03,-0.57,-0.45
1.977e-03,-0.61,-0.79
1.979e-03,-0.75,-0.59
1.981e-03,-0.59,-0.65
1.982e-03,-0.59,-0.49
1.984e-03,-0.55,-0.65
1.986e-03,-0.61,-0.51
1.988e-03,-0.55,-0.71
1.990e-03,-0.71,-0.51
1.992e-03,-0.53,-0.69
1.994e-03,-0.59,-0.49
1.996e-03,-0.61,-0.69
1.998e-03,-0.57,-0.49
2.000e-03,-0.57,-0.69
2.002e-03,-0.61,-0.53
2.004e-03,-0.61,-0.65
2.005e-03,-0.55,-0.49
2.007e-03,-0.55,-0.59
2.009e-03,-0.47,-0.45
2.011e-03,-0.57,-0.61
2.013e-03,-0.49,-0.45
2.015e-03,-0.55,-0.67
2.017e-03,-0.55,-0.47
2.019e-03,-0.53,-0.67
2.021e-03,-0.53,-0.45
2.023e-03,-0.63,-0.75
2.025e-03,-0.63,-0.57
2.027e-03,-0.69,-0.81
2.029e-03,-0.77,-0.65
2.030e-03,-0.69,-0.77
2.032e-03,-0.67,-0.51
2.034e-03,-0.49,-0.63
2.036e-03,-0.57,-0.43
2.038e-03,-0.53,-0.69
2.040e-03,-0.63,-0.49
2.042e-03,-0.59,-0.69
2.044e-03,-0.61,-0.45
2.046e-03,-0.49,-0.71
2.048e-03,-0.63,-0.45
2.050e-03,-0.67,-0.71
2.052e-03,-0.63,-0.59
2.053e-03,-0.69,-0.81
2.055e-03,-0.69,-0.61
2.057e-03,-0.81,-0.83
2.059e-03,-0.71,-0.65
2.061e-03,-0.73,-0.77
2.063e-03,-0.69,-0.63
2.065e-03,-0.73,-0.79
2.067e-03,-0.71,-0.61
2.069e-03,-0.69,-0.71
2.071e-03,-0.65,-0.57
2.073e-03,-0.65,-0.75
2.075e-03,-0.63,-0.57
2.077e-03,-0.69,-0.75
2.078e-03,-0.67,-0.61
2.080e-03,-0.69,-0.77
2.082e-03,-0.69,-0.57
2.084e-03,-0.57,-0.67
2.086e-03,-0.63,-0.51
2.088e-03,-0.53,-0.65
2.090e-03,-0.63,-0.49
2.092e-03,-0.55,-0.71
2.094e-03,-0.63,-0.51
2.096e-03,-0.67,-0.73
2.098e-03,-0.65,-0.57
2.100e-03,-0.63,-0.67
2.101e-03,-0.57,-0.51
2.103e-03,-0.59,-0.67
2.105e-03,-0.59,-0.55
2.107e-03,-0.65,-0.69
2.109e-03,-0.57,-0.49
2.111e-03,-0.61,-0.71
2.113e-03,-0.59,-0.53
2.115e-03,-0.61,-0.75
2.117e-03,-0.57,-0.53
2.119e-03,-0.65,-0.73
2.121e-03,-0.63,-0.59
2.123e-03,-0.63,-0.69
2.125e-03,-0.59,-0.53
2.126e-03,-0.59,-0.67
2.128e-03,-0.63,-0.53
2.130e-03,-0.53,-0.69
2.132e-03,-0.63,-0.53
2.134e-03,-0.57,-0.65
2.136e-03,-0.53,-0.45
2.138e-03,-0.59,-0.67
2.140e-03,-0.61,-0.53
2.142e-03,-0.57,-0.63
2.144e-03,-0.55,-0.49
2.146e-03,-0.59,-0.69
2.148e-03,-0.61,-0.53
2.149e-03,-0.61,-0.67
2.151e-03,-0.57,-0.53
2.153e-03,-0.63,-0.75
2.155e-03,-0.63,-0.55
2.157e-03,-0.69,-0.73
2.159e-03,-0.61,-0.59
2.161e-03,-0.69,-0.71
2.163e-03,-0.61,-0.57
2.165e-03,-0.67,-0.83
2.167e-03,-0.75,-0.57
2.169e-03,-0.81,-0.83
2.171e-03,-0.73,-0.67
2.173e-03,-0.73,-0.79
2.174e-03,-0.75,-0.65
2.176e-03,-0.73,-0.83
2.178e-03,-0.75,-0.67
2.180e-03,-0.73,-0.87
2.182e-03,-0.83,-0.71
2.184e-03,-0.73,-0.89
2.186e-03,-0.81,-0.73
2.188e-03,-0.81,-0.89
2.190e-03,-0.79,-0.61
2.192e-03,-0.65,-0.87
2.194e-03,-0.73,-0.61
2.196e-03,-0.83,-0.89
2.197e-03,-0.81,-0.65
2.199e-03,-0.69,-0.73
2.201e-03,-0.57,-0.51
2.203e-03,-0.63,-0.79
2.205e-03,-0.69,-0.57
2.207e-03,-0.67,-0.73
2.209e-03,-0.59,-0.55
2.211e-03,-0.71,-0.75
2.213e-03,-0.63,-0.59
2.215e-03,-0.67,-0.75
2.217e-03,-0.65,-0.61
2.219e-03,-0.69,-0.77
2.221e-03,-0.67,-0.61
2.222e-03,-0.69,-0.77
2.224e-03,-0.67,-0.61
2.226e-03,-0.67,-0.77
2.228e-03,-0.73,-0.63
2.230e-03,-0.67,-0.77
2.232e-03,-0.67,-0.61
2.234e-03,-0.69,-0.77
2.236e-03,-0.71,-0.59
2.238e-03,-0.69,-0.77
2.240e-03,-0.69,-0.53
2.242e-03,-0.57,-0.81
2.244e-03,-0.69,-0.53
2.245e-03,-0.77,-0.85
2.247e-03,-0.77,-0.71
2.249e-03,-0.79,-0.83
2.251e-03,-0.75,-0.69
2.253e-03,-0.77,-0.81
2.255e-03,-0.73,-0.65
2.257e-03,-0.73,-0.75
2.259e-03,-0.63,-0.59
2.261e-03,-0.67,-0.69
2.263e-03,-0.59,-0.49
2.265e-03,-0.57,-0.67
2.267e-03,-0.55,-0.49
2.269e-03,-0.63,-0.73
2.270e-03,-0.67,-0.59
2.272e-03,-0.65,-0.71
2.274e-03,-0.65,-0.59
2.276e-03,-0.65,-0.83
2.278e-03,-0.79,-0.61
2.280e-03,-0.73,-0.85
2.282e-03,-0.77,-0.65
2.284e-03,-0.65,-0.73
2.286e-03,-0.63,-0.55
2.288e-03,-0.57,-0.65
2.290e-03,-0.59,-0.49
2.292e-03,-0.59,-0.75
2.294e-03,-0.67,-0.55
2.295e-03,-0.67,-0.79
2.297e-03,-0.73,-0.63
2.299e-03,-0.69,-0.73
2.301e-03,-0.59,-0.55
2.303e-03,-0.71,-0.73
2.305e-03,-0.63,-0.53
2.307e-03,-0.61,-0.61
2.309e-03,-0.53,-0.49
2.311e-03,-0.57,-0.61
2.313e-03,-0.43,-0.41
2.315e-03,-0.55,-0.73
2.317e-03,-0.63,-0.49
2.318e-03,-0.69,-0.83
2.320e-03,-0.75,-0.65
2.322e-03,-0.77,-0.87
2.324e-03,-0.79,-0.65
2.326e-03,-0.69,-0.79
2.328e-03,-0.77,-0.63
2.330e-03,-0.67,-0.83
2.332e-03,-0.79,-0.63
2.334e-03,-0.75,-0.81
2.336e-03,-0.75,-0.65
2.338e-03,-0.71,-0.81
2.340e-03,-0.79,-0.61
2.342e-03,-0.63,-0.71
2.343e-03,-0.65,-0.57
2.345e-03,-0.65,-0.77
2.347e-03,-0.67,-0.61
2.349e-03,-0.77,-0.79
2.351e-03,-0.65,-0.61
2.353e-03,-0.71,-0.73
2.355e-03,-0.57,-0.53
2.357e-03,-0.65,-0.71
2.359e-03,-0.59,-0.57
2.361e-03,-0.69,-0.73
2.363e-03,-0.63,-0.61
2.365e-03,-0.69,-0.73
2.366e-03,-0.65,-0.57
2.368e-03,-0.61,-0.83
2.370e-03,-0.71,-0.57
2.372e-03,-0.75,-0.81
2.374e-03,-0.73,-0.65
2.376e-03,-0.69,-0.79
2.378e-03,-0.75,-0.63
2.380e-03,-0.71,-0.87
2.382e-03,-0.83,-0.69
2.384e-03,-0.73,-0.85
2.386e-03,-0.73,-0.65
2.388e-03,-0.67,-0.75
2.390e-03,-0.57,-0.51
2.391e-03,-0.55,-0.69
2.393e-03,-0.61,-0.51
2.395e-03,-0.67,-0.77
2.397e-03,-0.69,-0.63
2.399e-03,-0.71,-0.85
2.401e-03,-0.75,-0.65
2.403e-03,-0.75,-0.77
2.405e-03,-0.65,-0.63
2.407e-03,-0.71,-0.81
2.409e-03,-0.67,-0.61
2.411e-03,-0.79,-0.83
2.413e-03,-0.69,-0.57
2.414e-03,-0.59,-0.65
2.416e-03,-0.55,-0.49
2.418e-03,-0.59,-0.69
2.420e-03,-0.63,-0.53
2.422e-03,-0.57,-0.83
2.424e-03,-0.69,-0.53
2.426e-03,-0.73,-0.81
2.428e-03,-0.75,-0.65
2.430e-03,-0.69,-0.79
2.432e-03,-0.71,-0.63
2.434e-03,-0.73,-0.81
2.436e-03,-0.79,-0.67
2.438e-03,-0.73,-0.83
2.439e-03,-0.77,-0.65
2.441e-03,-0.71,-0.77
2.443e-03,-0.65,-0.59
2.445e-03,-0.65,-0.83
2.447e-03,-0.71,-0.61
2.449e-03,-0.77,-0.83
2.451e-03,-0.75,-0.67
2.453e-03,-0.79,-0.79
2.455e-03,-0.69,-0.63
2.457e-03,-0.69,-0.71
2.459e-03,-0.53,-0.53
2.461e-03,-0.61,-0.71
2.462e-03,-0.59,-0.55
2.464e-03,-0.61,-0.69
2.466e-03,-0.55,-0.49
2.468e-03,-0.65,-0.79
2.470e-03,-0.75,-0.61
2.472e-03,-0.65,-0.79
2.474e-03,-0.69,-0.61
2.476e-03,-0.71,-0.81
2.478e-03,-0.75,-0.65
2.480e-03,-0.69,-0.83
2.482e-03,-0.81,-0.67
2.484e-03,-0.73,-0.81
2.486e-03,-0.69,-0.61
2.487e-03,-0.67,-0.83
2.489e-03,-0.77,-0.63
2.491e-03,-0.73,-0.79
2.493e-03,-0.69,-0.59
2.495e-03,-0.69,-0.73
2.497e-03,-0.59,-0.57
2.499e-03,-0.69,-0.79
2.501e-03,-0.67,-0.61
2.503e-03,-0.79,-0.83
2.505e-03,-0.73,-0.69
2.507e-03,-0.83,-0.87
2.509e-03,-0.79,-0.67
2.510e-03,-0.73,-0.81
2.512e-03,-0.73,-0.65
2.514e-03,-0.75,-0.81
2.516e-03,-0.75,-0.67
2.518e-03,-0.73,-0.81
2.520e-03,-0.73,-0.65
2.522e-03,-0.73,-0.81
2.524e-03,-0.73,-0.65
2.526e-03,-0.71,-0.85
2.528e-03,-0.79,-0.65
2.530e-03,-0.75,-0.85
2.532e-03,-0.77,-0.65
2.534e-03,-0.67,-0.75
2.535e-03,-0.63,-0.55
2.537e-03,-0.61,-0.83
2.539e-03,-0.75,-0.57
2.541e-03,-0.75,-0.85
2.543e-03,-0.75,-0.71
2.545e-03,-0.81,-0.93
2.547e-03,-0.87,-0.75
2.549e-03,-0.83,-0.87
2.551e-03,-0.73,-0.69
2.553e-03,-0.83,-0.85
2.555e-03,-0.69,-0.67
2.557e-03,-0.83,-0.85
2.558e-03,-0.77,-0.69
2.560e-03,-0.73,-0.81
2.562e-03,-0.73,-0.67
2.564e-03,-0.71,-0.79
2.566e-03,-0.69,-0.61
2.568e-03,-0.67,-0.83
2.570e-03,-0.79,-0.63
2.572e-03,-0.69,-0.89
2.574e-03,-0.77,-0.67
2.576e-03,-0.79,-0.87
2.578e-03,-0.79,-0.65
2.580e-03,-0.67,-0.75
2.582e-03,-0.71,-0.61
2.583e-03,-0.65,-0.73
2.585e-03,-0.69,-0.59
2.587e-03,-0.65,-0.95
2.589e-03,-0.81,-0.61
2.591e-03,-0.93,-0.97
2.593e-03,-0.89,-0.79
2.595e-03,-0.87,-0.89
2.597e-03,-0.75,-0.65
2.599e-03,-0.73,-0.77
2.601e-03,-0.67,-0.59
2.603e-03,-0.67,-0.69
2.605e-03,-0.57,-0.53
2.606e-03,-0.67,-0.89
2.608e-03,-0.75,-0.61
2.610e-03,-0.89,-0.93
2.612e-03,-0.85,-0.77
2.614e-03,-0.81,-0.87
2.616e-03,-0.79,-0.73
2.618e-03,-0.79,-0.87
2.620e-03,-0.81,-0.69
2.622e-03,-0.69,-0.77
2.624e-03,-0.73,-0.59
2.626e-03,-0.63,-0.81
2.628e-03,-0.73,-0.59
2.630e-03,-0.69,-0.79
2.631e-03,-0.73,-0.63
2.633e-03,-0.65,-0.75
2.635e-03,-0.69,-0.61
2.637e-03,-0.67,-0.77
2.639e-03,-0.65,-0.59
2.641e-03,-0.71,-0.85
2.643e-03,-0.73,-0.67
2.645e-03,-0.83,-0.89
2.647e-03,-0.81,-0.75
2.649e-03,-0.85,-0.89
2.651e-03,-0.75,-0.73
2.653e-03,-0.89,-0.89
2.654e-03,-0.77,-0.75
2.656e-03,-0.83,-0.91
2.658e-03,-0.83,-0.73
2.660e-03,-0.79,-0.91
2.662e-03,-0.83,-0.75
2.664e-03,-0.81,-0.87
2.666e-03,-0.79,-0.71
2.668e-03,-0.79,-0.91
2.670e-03,-0.83,-0.73
2.672e-03,-0.83,-0.91
2.674e-03,-0.79,-0.71
2.676e-03,-0.75,-0.87
2.678e-03,-0.77,-0.67
2.679e-03,-0.77,-0.85
2.681e-03,-0.79,-0.69
2.683e-03,-0.71,-0.85
2.685e-03,-0.83,-0.67
2.687e-03,-0.73,-0.83
2.689e-03,-0.75,-0.69
2.691e-03,-0.77,-0.81
2.693e-03,-0.69,-0.63
2.695e-03,-0.69,-0.79
2.697e-03,-0.67,-0.61
2.699e-03,-0.75,-0.89
2.701e-03,-0.71,-0.65
2.702e-03,-0.87,-0.89
2.704e-03,-0.81,-0.75
2.706e-03,-0.87,-0.89
2.708e-03,-0.79,-0.71
2.710e-03,-0.81,-0.85
2.712e-03,-0.75,-0.61
2.714e-03,-0.69,-0.83
2.716e-03,-0.75,-0.65
2.718e-03,-0.77,-0.87
2.720e-03,-0.83,-0.71
2.722e-03,-0.75,-0.83
2.724e-03,-0.77,-0.63
2.726e-03,-0.65,-0.83
2.727e-03,-0.75,-0.63
2.729e-03,-0.73,-0.83
2.731e-03,-0.73,-0.67
2.733e-03,-0.69,-0.79
2.735e-03,-0.73,-0.63
2.737e-03,-0.69,-0.87
2.739e-03,-0.73,-0.65
2.741e-03,-0.87,-0.93
2.743e-03,-0.81,-0.75
2.745e-03,-0.83,-0.89
2.747e-03,-0.79,-0.75
2.749e-03,-0.83,-0.91
2.750e-03,-0.79,-0.69
2.752e-03,-0.87,-0.89
2.754e-03,-0.79,-0.71
2.756e-03,-0.77,-0.81
2.758e-03,-0.73,-0.69
2.760e-03,-0.77,-0.83
2.762e-03,-0.71,-0.67
2.764e-03,-0.75,-0.93
2.766e-03,-0.87,-0.71
2.768e-03,-0.79,-0.93
2.770e-03,-0.79,-0.69
2.772e-03,-0.83,-1.01
2.774e-03,-0.93,-0.81
2.775e-03,-0.93,-1.01
2.777e-03,-0.87,-0.75
2.779e-03,-0.75,-0.85
2.781e-03,-0.81,-0.71
2.783e-03,-0.77,-0.85
2.785e-03,-0.77,-0.67
2.787e-03,-0.75,-0.87
2.789e-03,-0.77,-0.69
2.791e-03,-0.81,-0.91
2.793e-03,-0.85,-0.75
2.795e-03,-0.85,-0.95
2.797e-03,-0.83,-0.77
2.798e-03,-0.93,-0.95
2.800e-03,-0.83,-0.73
2.802e-03,-0.83,-0.91
2.804e-03,-0.83,-0.73
2.806e-03,-0.79,-0.91
2.808e-03,-0.79,-0.71
2.810e-03,-0.85,-0.91
2.812e-03,-0.81,-0.73
2.814e-03,-0.81,-0.91
2.816e-03,-0.83,-0.69
2.818e-03,-0.73,-0.83
2.820e-03,-0.75,-0.65
2.822e-03,-0.73,-0.87
2.823e-03,-0.81,-0.71
2.825e-03,-0.79,-0.89
2.827e-03,-0.79,-0.69
2.829e-03,-0.77,-0.91
2.831e-03,-0.83,-0.71
2.833e-03,-0.81,-0.89
2.835e-03,-0.81,-0.71
2.837e-03,-0.77,-0.81
2.839e-03,-0.75,-0.65
2.841e-03,-0.71,-0.85
2.843e-03,-0.75,-0.65
2.845e-03,-0.81,-0.83
2.846e-03,-0.71,-0.63
2.848e-03,-0.73,-0.79
2.850e-03,-0.67,-0.63
2.852e-03,-0.71,-0.83
2.854e-03,-0.69,-0.61
2.856e-03,-0.81,-0.85
2.858e-03,-0.69,-0.63
2.860e-03,-0.73,-0.91
2.862e-03,-0.81,-0.65
2.864e-03,-0.83,-0.87
2.866e-03,-0.79,-0.69
2.868e-03,-0.69,-0.85
2.870e-03,-0.79,-0.67
2.871e-03,-0.77,-0.89
2.873e-03,-0.81,-0.63
2.875e-03,-0.67,-0.89
2.877e-03,-0.89,-0.65
2.879e-03,-0.79,-0.87
2.881e-03,-0.81,-0.71
2.883e-03,-0.77,-0.91
2.885e-03,-0.83,-0.73
2.887e-03,-0.83,-0.95
2.889e-03,-0.89,-0.77
2.891e-03,-0.85,-0.95
2.893e-03,-0.87,-0.75
2.895e-03,-0.83,-0.85
2.896e-03,-0.77,-0.73
2.898e-03,-0.85,-0.93
2.900e-03,-0.79,-0.77
2.902e-03,-0.85,-0.93
2.904e-03,-0.79,-0.75
2.906e-03,-0.89,-0.97
2.908e-03,-0.79,-0.71
2.910e-03,-0.83,-0.89
2.912e-03,-0.77,-0.61
2.914e-03,-0.63,-0.77
2.916e-03,-0.71,-0.61
2.918e-03,-0.67,-0.91
2.919e-03,-0.81,-0.65
2.921e-03,-0.85,-0.95
2.923e-03,-0.91,-0.81
2.925e-03,-0.81,-0.89
2.927e-03,-0.79,-0.69
2.929e-03,-0.75,-0.89
2.931e-03,-0.83,-0.71
2.933e-03,-0.83,-0.89
2.935e-03,-0.73,-0.67
2.937e-03,-0.75,-0.81
2.939e-03,-0.69,-0.65
2.941e-03,-0.73,-0.83
2.943e-03,-0.71,-0.63
2.944e-03,-0.79,-0.87
2.946e-03,-0.79,-0.73
2.948e-03,-0.83,-0.85
2.950e-03,-0.77,-0.69
2.952e-03,-0.77,-0.79
2.954e-03,-0.69,-0.59
2.956e-03,-0.65,-0.83
2.958e-03,-0.69,-0.57
2.960e-03,-0.77,-0.87
2.962e-03,-0.83,-0.71
2.964e-03,-0.79,-0.85
2.966e-03,-0.79,-0.71
2.967e-03,-0.75,-0.89
2.969e-03,-0.83,-0.71
2.971e-03,-0.81,-0.91
2.973e-03,-0.89,-0.75
2.975e-03,-0.77,-0.87
2.977e-03,-0.79,-0.65
2.979e-03,-0.67,-0.85
2.981e-03,-0.79,-0.65
2.983e-03,-0.75,-0.83
2.985e-03,-0.77,-0.67
2.987e-03,-0.75,-0.81
2.989e-03,-0.71,-0.65
2.991e-03,-0.75,-0.81
2.992e-03,-0.69,-0.67
2.994e-03,-0.79,-0.85
2.996e-03,-0.75,-0.69
2.998e-03,-0.83,-0.87
3.000e-03,-0.77,-0.69
3.002e-03,-0.75,-0.89
3.004e-03,-0.79,-0.69
3.006e-03,-0.71,-0.85
3.008e-03,-0.75,-0.67
3.010e-03,-0.79,-0.91
3.012e-03,-0.81,-0.73
3.014e-03,-0.79,-0.91
3.015e-03,-0.85,-0.73
3.017e-03,-0.81,-0.95
3.019e-03,-0.87,-0.77
3.021e-03,-0.87,-0.99
3.023e-03,-0.95,-0.81
3.025e-03,-0.83,-0.91
3.027e-03,-0.85,-0.73
3.029e-03,-0.83,-0.91
3.031e-03,-0.81,-0.67
3.033e-03,-0.71,-0.83
3.035e-03,-0.71,-0.65
3.037e-03,-0.83,-0.89
3.039e-03,-0.75,-0.73
3.040e-03,-0.87,-0.89
3.042e-03,-0.77,-0.71
3.044e-03,-0.83,-0.99
3.046e-03,-0.83,-0.77
3.048e-03,-0.97,-0.99
3.050e-03,-0.93,-0.85
3.052e-03,-0.93,-0.97
3.054e-03,-0.83,-0.75
3.056e-03,-0.79,-0.83
3.058e-03,-0.73,-0.65
3.060e-03,-0.77,-0.83
3.062e-03,-0.75,-0.63
3.063e-03,-0.69,-0.75
3.065e-03,-0.69,-0.59
3.067e-03,-0.65,-0.91
3.069e-03,-0.89,-0.61
3.071e-03,-0.73,-0.93
3.073e-03,-0.85,-0.73
3.075e-03,-0.83,-0.97
3.077e-03,-0.83,-0.77
3.079e-03,-0.91,-0.97
3.081e-03,-0.87,-0.79
3.083e-03,-0.87,-0.89
3.085e-03,-0.65,-0.59
3.087e-03,-0.67,-0.77
3.088e-03,-0.59,-0.57
3.090e-03,-0.75,-0.81
3.092e-03,-0.65,-0.63
3.094e-03,-0.81,-0.89
3.096e-03,-0.77,-0.73
3.098e-03,-0.85,-0.89
3.100e-03,-0.75,-0.71
3.102e-03,-0.81,-0.97
3.104e-03,-0.91,-0.73
3.106e-03,-0.83,-0.93
3.108e-03,-0.87,-0.77
3.110e-03,-0.83,-0.91
3.111e-03,-0.83,-0.67
3.113e-03,-0.69,-0.79
3.115e-03,-0.73,-0.65
3.117e-03,-0.71,-0.83
3.119e-03,-0.75,-0.67
3.121e-03,-0.77,-0.91
3.123e-03,-0.83,-0.71
3.125e-03,-0.81,-0.87
3.127e-03,-0.85,-0.73
3.129e-03,-0.79,-0.91
3.131e-03,-0.83,-0.71
3.133e-03,-0.87,-0.91
3.135e-03,-0.77,-0.75
3.136e-03,-0.89,-0.97
3.138e-03,-0.87,-0.79
3.140e-03,-0.87,-0.93
3.142e-03,-0.79,-0.73
3.144e-03,-0.81,-0.89
3.146e-03,-0.79,-0.73
3.148e-03,-0.85,-0.85
3.150e-03,-0.77,-0.67
3.152e-03,-0.71,-0.89
3.154e-03,-0.77,-0.67
3.156e-03,-0.83,-0.87
3.158e-03,-0.81,-0.71
3.159e-03,-0.79,-0.87
3.161e-03,-0.79,-0.71
3.163e-03,-0.77,-0.91
3.165e-03,-0.87,-0.73
3.167e-03,-0.83,-0.93
3.169e-03,-0.91,-0.77
3.171e-03,-0.79,-0.91
3.173e-03,-0.85,-0.75
3.175e-03,-0.77,-0.87
3.177e-03,-0.79,-0.73
3.179e-03,-0.81,-0.89
3.181e-03,-0.81,-0.73
3.183e-03,-0.85,-0.99
3.184e-03,-0.89,-0.79
3.186e-03,-0.95,-0.97
3.188e-03,-0.83,-0.75
3.190e-03,-0.83,-0.89
3.192e-03,-0.79,-0.75
3.194e-03,-0.85,-0.89
3.196e-03,-0.81,-0.75
3.198e-03,-0.85,-0.93
3.200e-03,-0.81,-0.77
3.202e-03,-0.93,-0.97
3.204e-03,-0.91,-0.83
3.206e-03,-0.91,-0.95
3.207e-03,-0.87,-0.77
3.209e-03,-0.83,-0.95
3.211e-03,-0.87,-0.77
3.213e-03,-0.79,-0.87
3.215e-03,-0.79,-0.69
3.217e-03,-0.75,-0.97
3.219e-03,-0.89,-0.73
3.221e-03,-0.91,-0.97
3.223e-03,-0.89,-0.79
3.225e-03,-0.91,-0.99
3.227e-03,-0.91,-0.79
3.229e-03,-0.87,-0.93
3.231e-03,-0.89,-0.81
3.232e-03,-0.89,-0.93
3.234e-03,-0.85,-0.75
3.236e-03,-0.81,-0.83
3.238e-03,-0.69,-0.67
3.240e-03,-0.77,-0.79
3.242e-03,-0.67,-0.63
3.244e-03,-0.75,-0.79
3.246e-03,-0.63,-0.61
3.248e-03,-0.73,-0.89
3.250e-03,-0.77,-0.67
3.252e-03,-0.81,-0.93
3.254e-03,-0.87,-0.75
3.255e-03,-0.85,-0.89
3.257e-03,-0.85,-0.75
3.259e-03,-0.81,-0.87
3.261e-03,-0.79,-0.71
3.263e-03,-0.75,-0.91
3.265e-03,-0.87,-0.75
3.267e-03,-0.81,-0.89
3.269e-03,-0.81,-0.71
3.271e-03,-0.73,-0.95
3.273e-03,-0.83,-0.73
3.275e-03,-0.89,-1.01
3.277e-03,-0.95,-0.83
3.279e-03,-0.93,-0.99
3.280e-03,-0.89,-0.79
3.282e-03,-0.87,-0.91
3.284e-03,-0.83,-0.75
3.286e-03,-0.83,-0.87
3.288e-03,-0.79,-0.73
3.290e-03,-0.87,-0.89
3.292e-03,-0.81,-0.71
3.294e-03,-0.81,-0.81
3.296e-03,-0.69,-0.65
3.298e-03,-0.71,-0.75
3.300e-03,-0.63,-0.57
3.302e-03,-0.69,-0.79
3.303e-03,-0.73,-0.63
3.305e-03,-0.69,-0.77
3.307e-03,-0.71,-0.61
3.309e-03,-0.63,-0.85
3.311e-03,-0.81,-0.61
3.313e-03,-0.75,-0.83
3.315e-03,-0.75,-0.65
3.317e-03,-0.75,-0.87
3.319e-03,-0.85,-0.73
3.321e-03,-0.79,-0.89
3.323e-03,-0.87,-0.73
3.325e-03,-0.77,-0.93
3.327e-03,-0.83,-0.73
3.328e-03,-0.87,-0.95
3.330e-03,-0.87,-0.79
3.332e-03,-0.85,-0.99
3.334e-03,-0.87,-0.79
3.336e-03,-0.95,-0.99
3.338e-03,-0.89,-0.81
3.340e-03,-0.91,-0.93
3.342e-03,-0.83,-0.75
3.344e-03,-0.83,-0.97
3.346e-03,-0.85,-0.77
3.348e-03,-0.91,-0.99
3.350e-03,-0.85,-0.79
3.351e-03,-0.81,-0.89
3.353e-03,-0.83,-0.73
3.355e-03,-0.79,-0.97
3.357e-03,-0.83,-0.73
3.359e-03,-0.91,-0.99
3.361e-03,-0.93,-0.85
3.363e-03,-0.93,-1.03
3.365e-03,-0.95,-0.87
3.367e-03,-0.89,-1.01
3.369e-03,-0.97,-0.83
3.371e-03,-0.85,-0.93
3.373e-03,-0.85,-0.77
3.375e-03,-0.83,-0.95
3.376e-03,-0.91,-0.77
3.378e-03,-0.85,-0.89
3.380e-03,-0.71,-0.65
3.382e-03,-0.75,-0.79
3.384e-03,-0.71,-0.67
3.386e-03,-0.75,-0.79
3.388e-03,-0.65,-0.61
3.390e-03,-0.71,-0.73
3.392e-03,-0.63,-0.59
3.394e-03,-0.73,-0.81
3.396e-03,-0.71,-0.65
3.398e-03,-0.79,-0.85
3.399e-03,-0.79,-0.71
3.401e-03,-0.75,-0.81
3.403e-03,-0.73,-0.69
3.405e-03,-0.71,-0.81
3.407e-03,-0.73,-0.63
3.409e-03,-0.73,-0.81
3.411e-03,-0.73,-0.65
3.413e-03,-0.71,-0.93
3.415e-03,-0.87,-0.69
3.417e-03,-0.83,-0.97
3.419e-03,-0.89,-0.79
3.421e-03,-0.85,-0.95
3.423e-03,-0.83,-0.77
3.424e-03,-0.81,-0.87
3.426e-03,-0.79,-0.69
3.428e-03,-0.75,-0.81
3.430e-03,-0.71,-0.63
3.432e-03,-0.71,-0.83
3.434e-03,-0.73,-0.65
3.436e-03,-0.79,-0.81
3.438e-03,-0.65,-0.61
3.440e-03,-0.69,-0.77
3.442e-03,-0.59,-0.57
3.444e-03,-0.73,-0.79
3.446e-03,-0.73,-0.65
3.447e-03,-0.69,-0.81
3.449e-03,-0.75,-0.65
3.451e-03,-0.75,-0.91
3.453e-03,-0.85,-0.71
3.455e-03,-0.81,-0.91
3.457e-03,-0.85,-0.75
3.459e-03,-0.79,-0.97
3.461e-03,-0.85,-0.77
3.463e-03,-0.83,-0.91
3.465e-03,-0.83,-0.71
3.467e-03,-0.73,-0.87
3.469e-03,-0.79,-0.67
3.471e-03,-0.83,-0.89
3.472e-03,-0.83,-0.69
3.474e-03,-0.77,-0.91
3.476e-03,-0.83,-0.71
3.478e-03,-0.85,-0.89
3.480e-03,-0.71,-0.65
3.482e-03,-0.73,-0.85
3.484e-03,-0.75,-0.65
3.486e-03,-0.79,-0.97
3.488e-03,-0.79,-0.69
3.490e-03,-0.95,-0.99
3.492e-03,-0.79,-0.73
3.494e-03,-0.87,-1.01
3.495e-03,-0.91,-0.79
3.497e-03,-0.95,-0.99
3.499e-03,-0.89,-0.85
3.501e-03,-0.93,-0.99
3.503e-03,-0.95,-0.83
3.505e-03,-0.85,-0.95
3.507e-03,-0.89,-0.79
3.509e-03,-0.81,-0.87
3.511e-03,-0.85,-0.73
3.513e-03,-0.75,-0.87
3.515e-03,-0.81,-0.71
3.517e-03,-0.77,-0.91
3.519e-03,-0.87,-0.75
3.520e-03,-0.83,-0.93
3.522e-03,-0.83,-0.77
3.524e-03,-0.83,-0.97
3.526e-03,-0.91,-0.81
3.528e-03,-0.93,-0.97
3.530e-03,-0.91,-0.79
3.532e-03,-0.87,-0.91
3.534e-03,-0.79,-0.73
3.536e-03,-0.81,-0.85
3.538e-03,-0.75,-0.69
3.540e-03,-0.79,-0.85
3.542e-03,-0.73,-0.69
3.544e-03,-0.81,-0.93
3.545e-03,-0.87,-0.75
3.547e-03,-0.85,-0.91
3.549e-03,-0.79,-0.71
3.551e-03,-0.81,-0.87
3.553e-03,-0.81,-0.65
3.555e-03,-0.67,-0.91
3.557e-03,-0.85,-0.65
3.559e-03,-0.79,-0.91
3.561e-03,-0.85,-0.75
3.563e-03,-0.81,-0.99
3.565e-03,-0.97,-0.79
3.567e-03,-0.91,-0.97
3.568e-03,-0.95,-0.81
3.570e-03,-0.85,-0.91
3.572e-03,-0.87,-0.73
3.574e-03,-0.77,-0.81
3.576e-03,-0.71,-0.67
3.578e-03,-0.73,-0.87
3.580e-03,-0.77,-0.65
3.582e-03,-0.83,-0.85
3.584e-03,-0.73,-0.69
3.586e-03,-0.81,-0.83
3.588e-03,-0.67,-0.63
3.590e-03,-0.79,-0.85
3.592e-03,-0.69,-0.67
3.593e-03,-0.77,-0.87
3.595e-03,-0.77,-0.69
3.597e-03,-0.81,-0.89
3.599e-03,-0.77,-0.67
3.601e-03,-0.75,-0.97
3.603e-03,-0.83,-0.69
3.605e-03,-0.91,-0.95
3.607e-03,-0.93,-0.83
3.609e-03,-0.85,-0.95
3.611e-03,-0.83,-0.75
3.613e-03,-0.77,-0.91
3.615e-03,-0.79,-0.73
3.616e-03,-0.83,-0.93
3.618e-03,-0.89,-0.77
3.620e-03,-0.83,-0.89
3.622e-03,-0.81,-0.73
3.624e-03,-0.83,-0.93
3.626e-03,-0.85,-0.77
3.628e-03,-0.85,-0.91
3.630e-03,-0.83,-0.75
3.632e-03,-0.89,-0.95
3.634e-03,-0.87,-0.79
3.636e-03,-0.87,-0.89
3.638e-03,-0.73,-0.65
3.640e-03,-0.73,-0.79
3.641e-03,-0.65,-0.61
3.643e-03,-0.75,-0.89
3.645e-03,-0.83,-0.69
3.647e-03,-0.87,-0.93
3.649e-03,-0.87,-0.79
3.651e-03,-0.85,-0.97
3.653e-03,-0.93,-0.79
3.655e-03,-0.79,-0.93
3.657e-03,-0.89,-0.75
3.659e-03,-0.83,-0.91
3.661e-03,-0.87,-0.73
3.663e-03,-0.77,-0.85
3.664e-03,-0.81,-0.65
3.666e-03,-0.69,-0.89
3.668e-03,-0.79,-0.65
3.670e-03,-0.85,-0.95
3.672e-03,-0.91,-0.79
3.674e-03,-0.89,-0.93
3.676e-03,-0.83,-0.73
3.678e-03,-0.81,-0.85
3.680e-03,-0.69,-0.63
3.682e-03,-0.73,-0.81
3.684e-03,-0.71,-0.63
3.686e-03,-0.81,-0.97
3.688e-03,-0.79,-0.75
3.689e-03,-0.95,-0.99
3.691e-03,-0.87,-0.83
3.693e-03,-0.89,-0.95
3.695e-03,-0.83,-0.77
3.697e-03,-0.85,-0.91
3.699e-03,-0.85,-0.75
3.701e-03,-0.79,-0.87
3.703e-03,-0.79,-0.71
3.705e-03,-0.75,-0.85
3.707e-03,-0.85,-0.71
3.709e-03,-0.77,-0.93
3.711e-03,-0.83,-0.71
3.712e-03,-0.83,-0.97
3.714e-03,-0.93,-0.83
3.716e-03,-0.85,-0.93
3.718e-03,-0.83,-0.71
3.720e-03,-0.79,-0.87
3.722e-03,-0.83,-0.73
3.724e-03,-0.81,-0.91
3.726e-03,-0.79,-0.75
3.728e-03,-0.89,-0.93
3.730e-03,-0.83,-0.73
3.732e-03,-0.79,-0.83
3.734e-03,-0.73,-0.69
3.736e-03,-0.81,-0.85
3.737e-03,-0.77,-0.69
3.739e-03,-0.77,-0.79
3.741e-03,-0.71,-0.65
3.743e-03,-0.75,-0.81
3.745e-03,-0.75,-0.67
3.747e-03,-0.71,-0.87
3.749e-03,-0.71,-0.65
3.751e-03,-0.83,-0.97
3.753e-03,-0.91,-0.79
3.755e-03,-0.89,-1.01
3.757e-03,-0.95,-0.81
3.759e-03,-0.81,-0.99
3.760e-03,-0.93,-0.79
3.762e-03,-0.93,-0.99
3.764e-03,-0.95,-0.75
3.766e-03,-0.77,-0.85
3.768e-03,-0.81,-0.71
3.770e-03,-0.77,-0.87
3.772e-03,-0.79,-0.71
3.774e-03,-0.83,-0.87
3.776e-03,-0.73,-0.69
3.778e-03,-0.79,-0.97
3.780e-03,-0.85,-0.75
3.782e-03,-0.97,-0.97
3.784e-03,-0.85,-0.77
3.785e-03,-0.85,-0.95
3.787e-03,-0.85,-0.79
3.789e-03,-0.87,-0.93
3.791e-03,-0.79,-0.75
3.793e-03,-0.81,-0.89
3.795e-03,-0.81,-0.73
3.797e-03,-0.85,-0.95
3.799e-03,-0.89,-0.81
3.801e-03,-0.79,-0.91
3.803e-03,-0.85,-0.71
3.805e-03,-0.81,-0.89
3.807e-03,-0.83,-0.69
3.808e-03,-0.75,-0.91
3.810e-03,-0.83,-0.71
3.812e-03,-0.83,-0.93
3.814e-03,-0.87,-0.73
3.816e-03,-0.81,-0.87
3.818e-03,-0.77,-0.69
3.820e-03,-0.79,-0.93
3.822e-03,-0.83,-0.73
3.824e-03,-0.91,-0.97
3.826e-03,-0.87,-0.85
3.828e-03,-0.95,-0.97
3.830e-03,-0.87,-0.83
3.832e-03,-0.93,-0.97
3.833e-03,-0.87,-0.83
3.835e-03,-0.91,-0.93
3.837e-03,-0.75,-0.73
3.839e-03,-0.83,-0.93
3.841e-03,-0.85,-0.77
3.843e-03,-0.89,-0.97
3.845e-03,-0.89,-0.83
3.847e-03,-0.89,-0.99
3.849e-03,-0.93,-0.85
3.851e-03,-0.89,-0.93
3.853e-03,-0.89,-0.79
3.855e-03,-0.79,-0.85
3.856e-03,-0.79,-0.69
3.858e-03,-0.73,-0.87
3.860e-03,-0.79,-0.71
3.862e-03,-0.79,-0.95
3.864e-03,-0.85,-0.77
3.866e-03,-0.83,-0.89
3.868e-03,-0.81,-0.73
3.870e-03,-0.81,-0.85
3.872e-03,-0.69,-0.65
3.874e-03,-0.77,-0.89
3.876e-03,-0.77,-0.69
3.878e-03,-0.83,-0.91
3.880e-03,-0.83,-0.75
3.881e-03,-0.85,-0.97
3.883e-03,-0.87,-0.77
3.885e-03,-0.83,-0.87
3.887e-03,-0.71,-0.67
3.889e-03,-0.81,-0.93
3.891e-03,-0.87,-0.73
3.893e-03,-0.83,-1.01
3.895e-03,-0.93,-0.77
3.897e-03,-0.93,-0.99
3.899e-03,-0.83,-0.67
3.901e-03,-0.65,-0.83
3.903e-03,-0.75,-0.63
3.904e-03,-0.73,-0.83
3.906e-03,-0.79,-0.69
3.908e-03,-0.71,-0.79
3.910e-03,-0.75,-0.65
3.912e-03,-0.71,-0.83
3.914e-03,-0.79,-0.67
3.916e-03,-0.73,-0.79
3.918e-03,-0.73,-0.63
3.920e-03,-0.71,-0.75
3.922e-03,-0.65,-0.61
3.924e-03,-0.73,-0.79
3.926e-03,-0.69,-0.59
3.928e-03,-0.67,-0.77
3.929e-03,-0.67,-0.61
3.931e-03,-0.77,-0.85
3.933e-03,-0.77,-0.67
3.935e-03,-0.83,-0.93
3.937e-03,-0.83,-0.73
3.939e-03,-0.89,-0.91
3.941e-03,-0.83,-0.77
3.943e-03,-0.81,-0.85
3.945e-03,-0.75,-0.69
3.947e-03,-0.73,-0.87
3.949e-03,-0.73,-0.67
3.951e-03,-0.79,-0.91
3.952e-03,-0.85,-0.75
3.954e-03,-0.81,-0.89
3.956e-03,-0.85,-0.71
3.958e-03,-0.73,-0.91
3.960e-03,-0.87,-0.73
3.962e-03,-0.85,-0.95
3.964e-03,-0.77,-0.71
3.966e-03,-0.77,-0.89
3.968e-03,-0.83,-0.73
3.970e-03,-0.83,-0.89
3.972e-03,-0.81,-0.71
3.974e-03,-0.79,-0.81
3.976e-03,-0.63,-0.59
3.977e-03,-0.69,-0.81
3.979e-03,-0.69,-0.61
3.981e-03,-0.77,-0.83
3.983e-03,-0.71,-0.67
3.985e-03,-0.77,-0.81
3.987e-03,-0.73,-0.67
3.989e-03,-0.71,-0.79
3.991e-03,-0.71,-0.63
3.993e-03,-0.73,-0.87
3.995e-03,-0.83,-0.67
3.997e-03,-0.73,-0.85
3.999e-03,-0.77,-0.67
4.000e-03,-0.79,-0.91
4.002e-03,-0.83,-0.73
4.004e-03,-0.81,-0.93
4.006e-03,-0.89,-0.79
4.008e-03,-0.87,-0.95
4.010e-03,-0.89,-0.77
4.012e-03,-0.81,-0.89
4.014e-03,-0.85,-0.67
4.016e-03,-0.71,-0.79
4.018e-03,-0.69,-0.63
4.020e-03,-0.79,-0.87
4.022e-03,-0.79,-0.71
4.024e-03,-0.81,-0.95
4.025e-03,-0.83,-0.75
4.027e-03,-0.89,-0.93
4.029e-03,-0.81,-0.77
4.031e-03,-0.85,-0.87
4.033e-03,-0.73,-0.69
4.035e-03,-0.85,-0.89
4.037e-03,-0.73,-0.67
4.039e-03,-0.77,-0.93
4.041e-03,-0.87,-0.73
4.043e-03,-0.87,-0.93
4.045e-03,-0.87,-0.77
4.047e-03,-0.79,-0.97
4.048e-03,-0.87,-0.75
4.050e-03,-0.85,-0.91
4.052e-03,-0.81,-0.67
4.054e-03,-0.67,-0.85
4.056e-03,-0.79,-0.65
4.058e-03,-0.75,-0.87
4.060e-03,-0.81,-0.71
4.062e-03,-0.75,-0.89
4.064e-03,-0.77,-0.71
4.066e-03,-0.79,-0.91
4.068e-03,-0.85,-0.75
4.070e-03,-0.85,-0.95
4.072e-03,-0.83,-0.79
4.073e-03,-0.91,-0.93
4.075e-03,-0.77,-0.75
4.077e-03,-0.83,-0.87
4.079e-03,-0.77,-0.73
4.081e-03,-0.87,-0.89
4.083e-03,-0.79,-0.71
4.085e-03,-0.81,-0.87
4.087e-03,-0.81,-0.73
4.089e-03,-0.83,-0.87
4.091e-03,-0.79,-0.65
4.093e-03,-0.67,-0.77
4.095e-03,-0.69,-0.61
4.096e-03,-0.69,-0.89
4.098e-03,-0.83,-0.63
4.100e-03,-0.79,-0.85
4.102e-03,-0.79,-0.69
4.104e-03,-0.69,-0.87
4.106e-03,-0.77,-0.67
4.108e-03,-0.75,-0.85
4.110e-03,-0.81,-0.65
4.112e-03,-0.67,-0.87
4.114e-03,-0.79,-0.63
4.116e-03,-0.79,-0.83
4.118e-03,-0.75,-0.63
4.120e-03,-0.67,-0.73
4.121e-03,-0.61,-0.57
4.123e-03,-0.67,-0.81
4.125e-03,-0.69,-0.63
4.127e-03,-0.79,-0.87
4.129e-03,-0.73,-0.71
4.131e-03,-0.81,-0.85
4.133e-03,-0.73,-0.71
4.135e-03,-0.77,-0.81
4.137e-03,-0.71,-0.67
4.139e-03,-0.69,-0.77
4.141e-03,-0.67,-0.61
4.143e-03,-0.69,-0.93
4.145e-03,-0.83,-0.65
4.146e-03,-0.85,-0.95
4.148e-03,-0.91,-0.83
4.150e-03,-0.89,-0.97
4.152e-03,-0.93,-0.79
4.154e-03,-0.79,-0.85
4.156e-03,-0.73,-0.63
4.158e-03,-0.69,-0.89
4.160e-03,-0.79,-0.65
4.162e-03,-0.85,-0.89
4.164e-03,-0.77,-0.63
4.166e-03,-0.67,-0.75
4.168e-03,-0.63,-0.59
4.169e-03,-0.77,-0.89
4.171e-03,-0.77,-0.69
4.173e-03,-0.85,-0.89
4.175e-03,-0.79,-0.75
4.177e-03,-0.83,-0.87
4.179e-03,-0.67,-0.65
4.181e-03,-0.89,-1.01
4.183e-03,-0.91,-0.79
4.185e-03,-0.99,-0.99
4.187e-03,-0.79,-0.71
4.189e-03,-0.79,-0.89
4.191e-03,-0.83,-0.71
4.193e-03,-0.79,-0.89
4.194e-03,-0.83,-0.69
4.196e-03,-0.73,-0.89
4.198e-03,-0.87,-0.71
4.200e-03,-0.81,-0.91
4.202e-03,-0.91,-0.77
4.204e-03,-0.79,-0.95
4.206e-03,-0.91,-0.77
4.208e-03,-0.89,-1.01
4.210e-03,-0.91,-0.75
4.212e-03,-0.81,-0.87
4.214e-03,-0.81,-0.71
4.216e-03,-0.77,-0.85
4.217e-03,-0.75,-0.71
4.219e-03,-0.81,-0.85
4.221e-03,-0.73,-0.69
4.223e-03,-0.83,-0.85
4.225e-03,-0.75,-0.67
4.227e-03,-0.75,-0.83
4.229e-03,-0.71,-0.61
4.231e-03,-0.67,-0.95
4.233e-03,-0.77,-0.63
4.235e-03,-0.91,-1.05
4.237e-03,-0.91,-0.85
4.239e-03,-0.97,-1.03
4.241e-03,-0.93,-0.77
4.242e-03,-0.79,-0.87
4.244e-03,-0.81,-0.69
4.246e-03,-0.71,-0.81
4.248e-03,-0.77,-0.67
4.250e-03,-0.73,-0.85
4.252e-03,-0.77,-0.67
4.254e-03,-0.79,-0.85
4.256e-03,-0.75,-0.67
4.258e-03,-0.69,-0.85
4.260e-03,-0.79,-0.67
4.262e-03,-0.77,-0.89
4.264e-03,-0.83,-0.73
4.265e-03,-0.87,-0.89
4.267e-03,-0.79,-0.71
4.269e-03,-0.81,-0.87
4.271e-03,-0.73,-0.69
4.273e-03,-0.75,-0.83
4.275e-03,-0.73,-0.69
4.277e-03,-0.83,-0.85
4.279e-03,-0.67,-0.61
4.281e-03,-0.71,-0.79
4.283e-03,-0.69,-0.61
4.285e-03,-0.75,-0.83
4.287e-03,-0.75,-0.67
4.289e-03,-0.73,-0.85
4.290e-03,-0.77,-0.67
4.292e-03,-0.75,-0.79
4.294e-03,-0.75,-0.63
4.296e-03,-0.61,-0.81
4.298e-03,-0.75,-0.61
4.300e-03,-0.73,-0.81
4.302e-03,-0.81,-0.67
4.304e-03,-0.65,-0.75
4.306e-03,-0.71,-0.61
4.308e-03,-0.65,-0.71
4.310e-03,-0.59,-0.53
4.312e-03,-0.57,-0.71
4.313e-03,-0.59,-0.51
4.315e-03,-0.71,-0.87
4.317e-03,-0.75,-0.67
4.319e-03,-0.89,-0.91
4.321e-03,-0.79,-0.75
4.323e-03,-0.87,-0.91
4.325e-03,-0.81,-0.71
4.327e-03,-0.77,-0.79
4.329e-03,-0.67,-0.61
4.331e-03,-0.69,-0.83
4.333e-03,-0.75,-0.63
4.335e-03,-0.77,-0.91
4.337e-03,-0.81,-0.73
4.338e-03,-0.77,-0.85
4.340e-03,-0.77,-0.69
4.342e-03,-0.73,-0.95
4.344e-03,-0.89,-0.71
4.346e-03,-0.83,-0.93
4.348e-03,-0.85,-0.77
4.350e-03,-0.85,-0.97
4.352e-03,-0.93,-0.83
4.354e-03,-0.91,-0.97
4.356e-03,-0.85,-0.75
4.358e-03,-0.79,-0.87
4.360e-03,-0.77,-0.67
4.361e-03,-0.73,-0.79
4.363e-03,-0.71,-0.65
4.365e-03,-0.73,-0.83
4.367e-03,-0.75,-0.67
4.369e-03,-0.77,-0.83
4.371e-03,-0.73,-0.67
4.373e-03,-0.71,-0.85
4.375e-03,-0.73,-0.63
4.377e-03,-0.83,-0.93
4.379e-03,-0.83,-0.73
4.381e-03,-0.79,-0.85
4.383e-03,-0.77,-0.73
4.385e-03,-0.79,-0.87
4.386e-03,-0.75,-0.69
4.388e-03,-0.79,-0.91
4.390e-03,-0.81,-0.73
4.392e-03,-0.83,-0.91
4.394e-03,-0.87,-0.75
4.396e-03,-0.77,-0.89
4.398e-03,-0.89,-0.73
4.400e-03,-0.77,-0.93
4.402e-03,-0.87,-0.75
4.404e-03,-0.79,-0.91
4.406e-03,-0.83,-0.77
4.408e-03,-0.83,-0.91
4.409e-03,-0.83,-0.79
4.411e-03,-0.87,-0.93
4.413e-03,-0.83,-0.77
4.415e-03,-0.83,-0.85
4.417e-03,-0.71,-0.67
4.419e-03,-0.75,-0.77
4.421e-03,-0.61,-0.57
4.423e-03,-0.65,-0.77
4.425e-03,-0.67,-0.59
4.427e-03,-0.73,-0.87
4.429e-03,-0.75,-0.65
4.431e-03,-0.81,-0.83
4.433e-03,-0.69,-0.63
4.434e-03,-0.73,-0.77
4.436e-03,-0.67,-0.59
4.438e-03,-0.69,-0.79
4.440e-03,-0.73,-0.61
4.442e-03,-0.63,-0.83
4.444e-03,-0.77,-0.61
4.446e-03,-0.73,-0.83
4.448e-03,-0.81,-0.63
4.450e-03,-0.69,-0.89
4.452e-03,-0.83,-0.65
4.454e-03,-0.85,-0.93
4.456e-03,-0.85,-0.75
4.457e-03,-0.83,-0.95
4.459e-03,-0.87,-0.77
4.461e-03,-0.89,-0.91
4.463e-03,-0.73,-0.65
4.465e-03,-0.71,-0.75
4.467e-03,-0.65,-0.59
4.469e-03,-0.69,-0.87
4.471e-03,-0.67,-0.63
4.473e-03,-0.89,-0.91
4.475e-03,-0.79,-0.75
4.477e-03,-0.83,-0.95
4.479e-03,-0.87,-0.77
4.481e-03,-0.81,-0.93
4.482e-03,-0.79,-0.73
4.484e-03,-0.85,-0.91
4.486e-03,-0.75,-0.67
4.488e-03,-0.69,-0.85
4.490e-03,-0.69,-0.61
4.492e-03,-0.81,-0.93
4.494e-03,-0.89,-0.75
4.496e-03,-0.75,-0.87
4.498e-03,-0.77,-0.67
4.500e-03,-0.77,-0.85
4.502e-03,-0.77,-0.63
4.504e-03,-0.65,-0.81
4.505e-03,-0.71,-0.63
4.507e-03,-0.77,-0.89
4.509e-03,-0.77,-0.71
4.511e-03,-0.79,-0.83
4.513e-03,-0.67,-0.63
4.515e-03,-0.79,-0.79
4.517e-03,-0.67,-0.63
4.519e-03,-0.77,-0.91
4.521e-03,-0.81,-0.71
4.523e-03,-0.87,-0.93
4.525e-03,-0.83,-0.77
4.527e-03,-0.93,-0.93
4.529e-03,-0.73,-0.65
4.530e-03,-0.75,-0.83
4.532e-03,-0.77,-0.69
4.534e-03,-0.73,-0.85
4.536e-03,-0.81,-0.67
4.538e-03,-0.75,-0.81
4.540e-03,-0.73,-0.65
4.542e-03,-0.73,-0.89
4.544e-03,-0.85,-0.71
4.546e-03,-0.77,-0.91
4.548e-03,-0.87,-0.75
4.550e-03,-0.79,-0.87
4.552e-03,-0.81,-0.71
4.553e-03,-0.77,-0.87
4.555e-03,-0.83,-0.71
4.557e-03,-0.79,-0.85
4.559e-03,-0.75,-0.67
4.561e-03,-0.73,-0.85
4.563e-03,-0.79,-0.69
4.565e-03,-0.77,-0.89
4.567e-03,-0.81,-0.73
4.569e-03,-0.85,-0.85
4.571e-03,-0.73,-0.67
4.573e-03,-0.79,-0.85
4.575e-03,-0.71,-0.67
4.577e-03,-0.77,-0.83
4.578e-03,-0.73,-0.67
4.580e-03,-0.77,-0.89
4.582e-03,-0.81,-0.71
4.584e-03,-0.81,-0.95
4.586e-03,-0.83,-0.75
4.588e-03,-0.87,-1.01
4.590e-03,-0.95,-0.81
4.592e-03,-0.81,-0.87
4.594e-03,-0.85,-0.65
4.596e-03,-0.67,-0.83
4.598e-03,-0.79,-0.65
4.600e-03,-0.75,-0.87
4.601e-03,-0.83,-0.71
4.603e-03,-0.79,-0.95
4.605e-03,-0.87,-0.77
4.607e-03,-0.83,-0.93
4.609e-03,-0.83,-0.77
4.611e-03,-0.89,-0.91
4.613e-03,-0.79,-0.77
4.615e-03,-0.85,-0.91
4.617e-03,-0.77,-0.73
4.619e-03,-0.89,-0.93
4.621e-03,-0.79,-0.73
4.623e-03,-0.81,-0.83
4.625e-03,-0.71,-0.65
4.626e-03,-0.73,-0.81
4.628e-03,-0.71,-0.63
4.630e-03,-0.77,-0.85
4.632e-03,-0.79,-0.71
4.634e-03,-0.77,-0.91
4.636e-03,-0.85,-0.73
4.638e-03,-0.77,-0.89
4.640e-03,-0.83,-0.67
4.642e-03,-0.69,-0.93
4.644e-03,-0.81,-0.67
4.646e-03,-0.83,-0.93
4.648e-03,-0.87,-0.77
4.649e-03,-0.79,-0.87
4.651e-03,-0.81,-0.71
4.653e-03,-0.75,-0.85
4.655e-03,-0.77,-0.69
4.657e-03,-0.73,-0.81
4.659e-03,-0.73,-0.67
4.661e-03,-0.77,-0.93
4.663e-03,-0.77,-0.69
4.665e-03,-0.91,-0.99
4.667e-03,-0.85,-0.81
4.669e-03,-0.99,-1.03
4.671e-03,-0.91,-0.89
4.673e-03,-0.95,-1.01
4.674e-03,-0.89,-0.79
4.676e-03,-0.85,-0.89
4.678e-03,-0.79,-0.69
4.680e-03,-0.75,-0.89
4.682e-03,-0.79,-0.69
4.684e-03,-0.79,-0.87
4.686e-03,-0.81,-0.69
4.688e-03,-0.77,-0.87
4.690e-03,-0.85,-0.73
4.692e-03,-0.73,-0.85
4.694e-03,-0.75,-0.67
4.696e-03,-0.77,-0.83
4.697e-03,-0.77,-0.65
4.699e-03,-0.79,-0.93
4.701e-03,-0.91,-0.75
4.703e-03,-0.85,-0.93
4.705e-03,-0.87,-0.75
4.707e-03,-0.79,-0.83
4.709e-03,-0.71,-0.57
4.711e-03,-0.67,-0.75
4.713e-03,-0.67,-0.59
4.715e-03,-0.67,-0.87
4.717e-03,-0.69,-0.61
4.719e-03,-0.87,-0.89
4.721e-03,-0.75,-0.67
4.722e-03,-0.77,-0.85
4.724e-03,-0.73,-0.69
4.726e-03,-0.81,-0.89
4.728e-03,-0.73,-0.67
4.730e-03,-0.83,-0.89
4.732e-03,-0.81,-0.71
4.734e-03,-0.77,-0.83
4.736e-03,-0.79,-0.69
4.738e-03,-0.71,-0.89
4.740e-03,-0.85,-0.69
4.742e-03,-0.77,-0.83
4.744e-03,-0.77,-0.67
4.745e-03,-0.71,-0.81
4.747e-03,-0.71,-0.63
4.749e-03,-0.73,-0.83
4.751e-03,-0.73,-0.69
4.753e-03,-0.77,-0.83
4.755e-03,-0.69,-0.61
4.757e-03,-0.71,-0.79
4.759e-03,-0.71,-0.65
4.761e-03,-0.75,-0.89
4.763e-03,-0.75,-0.67
4.765e-03,-0.85,-0.85
4.767e-03,-0.69,-0.67
4.769e-03,-0.83,-0.93
4.770e-03,-0.79,-0.77
4.772e-03,-0.85,-0.89
4.774e-03,-0.73,-0.69
4.776e-03,-0.79,-0.85
4.778e-03,-0.77,-0.67
4.780e-03,-0.79,-0.87
4.782e-03,-0.79,-0.71
4.784e-03,-0.75,-0.81
4.786e-03,-0.71,-0.53
4.788e-03,-0.57,-0.79
4.790e-03,-0.69,-0.55
4.792e-03,-0.69,-0.77
4.794e-03,-0.71,-0.61
4.795e-03,-0.63,-0.81
4.797e-03,-0.71,-0.57
4.799e-03,-0.75,-0.83
4.801e-03,-0.73,-0.63
4.803e-03,-0.77,-0.85
4.805e-03,-0.79,-0.71
4.807e-03,-0.77,-0.95
4.809e-03,-0.85,-0.73
4.811e-03,-0.89,-0.91
4.813e-03,-0.79,-0.75
4.815e-03,-0.85,-0.95
4.817e-03,-0.83,-0.79
4.818e-03,-0.89,-0.91
4.820e-03,-0.81,-0.69
4.822e-03,-0.75,-0.81
4.824e-03,-0.67,-0.65
4.826e-03,-0.77,-0.81
4.828e-03,-0.75,-0.67
4.830e-03,-0.69,-0.89
4.832e-03,-0.73,-0.63
4.834e-03,-0.79,-0.85
4.836e-03,-0.73,-0.65
4.838e-03,-0.71,-0.83
4.840e-03,-0.79,-0.69
4.842e-03,-0.75,-0.83
4.843e-03,-0.73,-0.65
4.845e-03,-0.69,-0.83
4.847e-03,-0.77,-0.69
4.849e-03,-0.73,-0.83
4.851e-03,-0.77,-0.65
4.853e-03,-0.69,-0.77
4.855e-03,-0.69,-0.63
4.857e-03,-0.75,-0.81
4.859e-03,-0.69,-0.67
4.861e-03,-0.79,-0.89
4.863e-03,-0.77,-0.71
4.865e-03,-0.87,-0.91
4.866e-03,-0.83,-0.73
4.868e-03,-0.81,-0.87
4.870e-03,-0.79,-0.73
4.872e-03,-0.85,-0.87
4.874e-03,-0.75,-0.65
4.876e-03,-0.71,-0.77
4.878e-03,-0.69,-0.63
4.880e-03,-0.69,-0.89
4.882e-03,-0.81,-0.67
4.884e-03,-0.81,-0.89
4.886e-03,-0.89,-0.69
4.888e-03,-0.71,-0.87
4.890e-03,-0.83,-0.67
4.891e-03,-0.69,-0.77
4.893e-03,-0.73,-0.61
4.895e-03,-0.65,-0.77
4.897e-03,-0.71,-0.59
4.899e-03,-0.67,-0.83
4.901e-03,-0.75,-0.61
4.903e-03,-0.81,-0.85
4.905e-03,-0.73,-0.67
4.907e-03,-0.79,-0.89
4.909e-03,-0.77,-0.71
4.911e-03,-0.83,-0.87
4.913e-03,-0.75,-0.71
4.914e-03,-0.81,-0.85
4.916e-03,-0.75,-0.73
4.918e-03,-0.81,-0.89
4.920e-03,-0.75,-0.71
4.922e-03,-0.85,-0.91
4.924e-03,-0.79,-0.69
4.926e-03,-0.77,-0.83
4.928e-03,-0.75,-0.69
4.930e-03,-0.71,-0.81
4.932e-03,-0.77,-0.63
4.934e-03,-0.65,-0.85
4.936e-03,-0.81,-0.63
4.938e-03,-0.77,-0.87
4.939e-03,-0.85,-0.69
4.941e-03,-0.73,-0.97
4.943e-03,-0.85,-0.69
4.945e-03,-0.87,-0.95
4.947e-03,-0.77,-0.69
4.949e-03,-0.79,-0.87
4.951e-03,-0.81,-0.71
4.953e-03,-0.77,-0.81
4.955e-03,-0.71,-0.67
4.957e-03,-0.79,-0.81
4.959e-03,-0.71,-0.67
4.961e-03,-0.73,-0.81
4.962e-03,-0.71,-0.65
4.964e-03,-0.79,-0.89
4.966e-03,-0.77,-0.73
4.968e-03,-0.87,-0.91
4.970e-03,-0.83,-0.77
4.972e-03,-0.87,-0.89
4.974e-03,-0.77,-0.69
4.976e-03,-0.79,-0.83
4.978e-03,-0.79,-0.67
4.980e-03,-0.69,-0.83
4.982e-03,-0.75,-0.65
4.984e-03,-0.75,-0.89
4.986e-03,-0.83,-0.71
4.987e-03,-0.81,-0.87
4.989e-03,-0.83,-0.75
4.991e-03,-0.77,-0.87
4.993e-03,-0.83,-0.73
4.995e-03,-0.77,-0.85
4.997e-03,-0.75,-0.65
4.999e-03,-0.69,-0.87
5.001e-03,-0.77,-0.65
5.003e-03,-0.85,-0.91
5.005e-03,-0.85,-0.75
5.007e-03,-0.81,-0.93
5.009e-03,-0.83,-0.77
5.010e-03,-0.87,-0.89
5.012e-03,-0.73,-0.71
5.014e-03,-0.81,-0.87
5.016e-03,-0.77,-0.69
5.018e-03,-0.75,-0.81
5.020e-03,-0.69,-0.65
5.022e-03,-0.71,-0.95
5.024e-03,-0.83,-0.71
5.026e-03,-0.91,-0.97
5.028e-03,-0.91,-0.75
5.030e-03,-0.77,-0.85
5.032e-03,-0.81,-0.63
5.034e-03,-0.63,-0.75
5.035e-03,-0.71,-0.59
5.037e-03,-0.65,-0.85
5.039e-03,-0.79,-0.63
5.041e-03,-0.79,-0.87
5.043e-03,-0.83,-0.65
5.045e-03,-0.71,-0.87
5.047e-03,-0.81,-0.67
5.049e-03,-0.83,-0.91
5.051e-03,-0.75,-0.67
5.053e-03,-0.77,-0.85
5.055e-03,-0.73,-0.67
5.057e-03,-0.83,-0.87
5.058e-03,-0.75,-0.71
5.060e-03,-0.79,-0.83
5.062e-03,-0.71,-0.69
5.064e-03,-0.77,-0.79
5.066e-03,-0.71,-0.63
5.068e-03,-0.71,-0.77
5.070e-03,-0.67,-0.63
5.072e-03,-0.77,-0.83
5.074e-03,-0.75,-0.67
5.076e-03,-0.79,-0.85
5.078e-03,-0.77,-0.69
5.080e-03,-0.79,-0.95
5.082e-03,-0.83,-0.73
5.083e-03,-0.89,-0.99
5.085e-03,-0.97,-0.87
5.087e-03,-0.89,-0.99
5.089e-03,-0.93,-0.81
5.091e-03,-0.83,-0.93
5.093e-03,-0.89,-0.77
5.095e-03,-0.81,-0.87
5.097e-03,-0.77,-0.73
5.099e-03,-0.83,-0.93
5.101e-03,-0.85,-0.75
5.103e-03,-0.83,-0.85
5.105e-03,-0.73,-0.65
5.106e-03,-0.73,-0.77
5.108e-03,-0.61,-0.61
5.110e-03,-0.77,-0.93
5.112e-03,-0.83,-0.69
5.114e-03,-0.85,-0.89
5.116e-03,-0.69,-0.67
5.118e-03,-0.79,-0.83
5.120e-03,-0.75,-0.69
5.122e-03,-0.75,-0.81
5.124e-03,-0.77,-0.65
5.126e-03,-0.69,-0.79
5.128e-03,-0.71,-0.63
5.130e-03,-0.69,-0.91
5.131e-03,-0.85,-0.67
5.133e-03,-0.85,-1.01
5.135e-03,-0.93,-0.83
5.137e-03,-0.89,-0.99
5.139e-03,-0.95,-0.83
5.141e-03,-0.91,-0.97
5.143e-03,-0.89,-0.79
5.145e-03,-0.83,-0.89
5.147e-03,-0.81,-0.73
5.149e-03,-0.79,-0.91
5.151e-03,-0.85,-0.73
5.153e-03,-0.85,-0.87
5.154e-03,-0.77,-0.67
5.156e-03,-0.75,-0.91
5.158e-03,-0.75,-0.67
5.160e-03,-0.89,-0.91
5.162e-03,-0.73,-0.69
5.164e-03,-0.85,-0.93
5.166e-03,-0.79,-0.75
5.168e-03,-0.91,-0.93
5.170e-03,-0.85,-0.79
5.172e-03,-0.85,-1.01
5.174e-03,-0.91,-0.81
5.176e-03,-0.93,-0.97
5.178e-03,-0.87,-0.81
5.179e-03,-0.85,-0.93
5.181e-03,-0.87,-0.75
5.183e-03,-0.77,-0.89
5.185e-03,-0.87,-0.73
5.187e-03,-0.75,-0.89
5.189e-03,-0.83,-0.69
5.191e-03,-0.69,-0.85
5.193e-03,-0.79,-0.65
5.195e-03,-0.75,-0.95
5.197e-03,-0.85,-0.71
5.199e-03,-0.93,-0.97
5.201e-03,-0.89,-0.79
5.202e-03,-0.85,-0.91
5.204e-03,-0.79,-0.73
5.206e-03,-0.89,-0.91
5.208e-03,-0.79,-0.73
5.210e-03,-0.83,-0.93
5.212e-03,-0.79,-0.73
5.214e-03,-0.89,-0.99
5.216e-03,-0.89,-0.81
5.218e-03,-0.87,-0.93
5.220e-03,-0.85,-0.73
5.222e-03,-0.77,-0.83
5.224e-03,-0.77,-0.69
5.226e-03,-0.71,-0.89
5.227e-03,-0.83,-0.67
5.229e-03,-0.81,-0.97
5.231e-03,-0.93,-0.79
5.233e-03,-0.87,-0.99
5.235e-03,-0.93,-0.83
5.237e-03,-0.91,-1.01
5.239e-03,-0.97,-0.83
5.241e-03,-0.85,-0.93
5.243e-03,-0.91,-0.77
5.245e-03,-0.83,-0.93
5.247e-03,-0.89,-0.69
5.249e-03,-0.77,-0.95
5.250e-03,-0.79,-0.67
5.252e-03,-0.93,-0.95
5.254e-03,-0.79,-0.77
5.256e-03,-0.87,-0.89
5.258e-03,-0.77,-0.75
5.260e-03,-0.85,-0.87
5.262e-03,-0.75,-0.69
5.264e-03,-0.83,-0.89
5.266e-03,-0.77,-0.67
5.268e-03,-0.73,-0.79
5.270e-03,-0.73,-0.65
5.272e-03,-0.71,-0.81
5.274e-03,-0.73,-0.65
5.275e-03,-0.77,-0.95
5.277e-03,-0.83,-0.71
5.279e-03,-0.85,-0.93
5.281e-03,-0.89,-0.75
5.283e-03,-0.77,-0.87
5.285e-03,-0.83,-0.71
5.287e-03,-0.71,-0.83
5.289e-03,-0.75,-0.65
5.291e-03,-0.67,-0.87
5.293e-03,-0.67,-0.61
5.295e-03,-0.83,-0.91
5.297e-03,-0.85,-0.77
5.298e-03,-0.83,-0.87
5.300e-03,-0.73,-0.71
5.302e-03,-0.81,-0.83
5.304e-03,-0.73,-0.67
5.306e-03,-0.79,-0.93
5.308e-03,-0.83,-0.71
5.310e-03,-0.89,-0.97
5.312e-03,-0.83,-0.79
5.314e-03,-0.91,-0.93
5.316e-03,-0.75,-0.67
5.318e-03,-0.77,-0.87
5.320e-03,-0.75,-0.69
5.322e-03,-0.81,-0.89
5.323e-03,-0.85,-0.75
5.325e-03,-0.79,-0.85
5.327e-03,-0.81,-0.71
5.329e-03,-0.71,-0.89
5.331e-03,-0.85,-0.71
5.333e-03,-0.79,-1.03
5.335e-03,-0.93,-0.77
5.337e-03,-0.95,-1.01
5.339e-03,-0.93,-0.75
5.341e-03,-0.77,-0.83
5.343e-03,-0.79,-0.69
5.345e-03,-0.73,-0.81
5.346e-03,-0.75,-0.63
5.348e-03,-0.71,-0.87
5.350e-03,-0.79,-0.67
5.352e-03,-0.81,-0.91
5.354e-03,-0.75,-0.73
5.356e-03,-0.89,-0.91
5.358e-03,-0.73,-0.67
5.360e-03,-0.75,-0.77
5.362e-03,-0.59,-0.55
5.364e-03,-0.67,-0.91
5.366e-03,-0.73,-0.63
5.368e-03,-0.87,-0.99
5.370e-03,-0.91,-0.83
5.371e-03,-0.91,-0.97
5.373e-03,-0.91,-0.77
5.375e-03,-0.79,-0.95
5.377e-03,-0.91,-0.77
5.379e-03,-0.85,-0.91
5.381e-03,-0.83,-0.73
5.383e-03,-0.81,-0.93
5.385e-03,-0.89,-0.77
5.387e-03,-0.81,-0.89
5.389e-03,-0.79,-0.71
5.391e-03,-0.79,-0.97
5.393e-03,-0.87,-0.73
5.395e-03,-0.89,-0.95
5.396e-03,-0.79,-0.73
5.398e-03,-0.89,-0.93
5.400e-03,-0.81,-0.79
5.402e-03,-0.89,-0.93
5.404e-03,-0.81,-0.73
5.406e-03,-0.83,-0.83
5.408e-03,-0.69,-0.67
5.410e-03,-0.81,-0.85
5.412e-03,-0.75,-0.71
5.414e-03,-0.83,-0.87
5.416e-03,-0.79,-0.71
5.418e-03,-0.77,-0.93
5.419e-03,-0.81,-0.71
5.421e-03,-0.85,-0.93
5.423e-03,-0.79,-0.69
5.425e-03,-0.79,-0.87
5.427e-03,-0.83,-0.71
5.429e-03,-0.69,-0.77
5.431e-03,-0.69,-0.61
5.433e-03,-0.63,-0.85
5.435e-03,-0.79,-0.61
5.437e-03,-0.77,-0.87
5.439e-03,-0.79,-0.69
5.441e-03,-0.79,-0.95
5.443e-03,-0.87,-0.75
5.444e-03,-0.83,-0.91
5.446e-03,-0.79,-0.71
5.448e-03,-0.77,-0.85
5.450e-03,-0.77,-0.71
5.452e-03,-0.79,-0.83
5.454e-03,-0.69,-0.65
5.456e-03,-0.75,-0.77
5.458e-03,-0.65,-0.55
5.460e-03,-0.59,-0.81
5.462e-03,-0.63,-0.53
5.464e-03,-0.73,-0.85
5.466e-03,-0.79,-0.69
5.467e-03,-0.79,-0.93
5.469e-03,-0.85,-0.75
5.471e-03,-0.83,-0.95
5.473e-03,-0.93,-0.77
5.475e-03,-0.75,-0.81
5.477e-03,-0.77,-0.63
5.479e-03,-0.67,-0.77
5.481e-03,-0.73,-0.63
5.483e-03,-0.69,-0.91
5.485e-03,-0.79,-0.67
5.487e-03,-0.83,-0.95
5.489e-03,-0.93,-0.79
5.491e-03,-0.87,-0.95
5.492e-03,-0.87,-0.81
5.494e-03,-0.87,-0.93
5.496e-03,-0.83,-0.77
5.498e-03,-0.91,-0.95
5.500e-03,-0.85,-0.79
5.502e-03,-0.95,-1.01
5.504e-03,-0.91,-0.83
5.506e-03,-0.95,-1.01
5.508e-03,-0.91,-0.85
5.510e-03,-0.97,-0.97
5.512e-03,-0.83,-0.79
5.514e-03,-0.91,-0.95
5.515e-03,-0.91,-0.81
5.517e-03,-0.87,-0.91
5.519e-03,-0.79,-0.71
5.521e-03,-0.73,-0.83
5.523e-03,-0.75,-0.67
5.525e-03,-0.75,-0.91
5.527e-03,-0.91,-0.73
5.529e-03,-0.79,-0.85
5.531e-03,-0.79,-0.69
5.533e-03,-0.77,-0.87
5.535e-03,-0.85,-0.69
5.537e-03,-0.71,-0.91
5.539e-03,-0.81,-0.69
5.540e-03,-0.87,-0.95
5.542e-03,-0.85,-0.79
5.544e-03,-0.91,-0.97
5.546e-03,-0.85,-0.79
5.548e-03,-0.89,-0.97
5.550e-03,-0.89,-0.83
5.552e-03,-0.95,-1.01
5.554e-03,-0.93,-0.85
5.556e-03,-0.99,-1.01
5.558e-03,-0.89,-0.85
5.560e-03,-0.87,-0.97
5.562e-03,-0.87,-0.77
5.563e-03,-0.83,-0.91
5.565e-03,-0.81,-0.73
5.567e-03,-0.85,-0.95
5.569e-03,-0.93,-0.81
5.571e-03,-0.85,-0.95
5.573e-03,-0.91,-0.77
5.575e-03,-0.79,-0.89
5.577e-03,-0.83,-0.69
5.579e-03,-0.75,-0.95
5.581e-03,-0.89,-0.71
5.583e-03,-0.89,-1.01
5.585e-03,-0.99,-0.85
5.587e-03,-0.95,-1.01
5.588e-03,-0.89,-0.73
5.590e-03,-0.77,-0.89
5.592e-03,-0.81,-0.73
5.594e-03,-0.81,-0.89
5.596e-03,-0.77,-0.71
5.598e-03,-0.85,-0.93
5.600e-03,-0.83,-0.77
5.602e-03,-0.93,-0.95
5.604e-03,-0.85,-0.79
5.606e-03,-0.89,-0.91
5.608e-03,-0.77,-0.63
5.610e-03,-0.71,-0.83
5.611e-03,-0.75,-0.65
5.613e-03,-0.77,-0.87
5.615e-03,-0.81,-0.71
5.617e-03,-0.77,-0.83
5.619e-03,-0.71,-0.63
5.621e-03,-0.71,-0.83
5.623e-03,-0.73,-0.63
5.625e-03,-0.75,-0.93
5.627e-03,-0.85,-0.71
5.629e-03,-0.85,-0.95
5.631e-03,-0.89,-0.81
5.633e-03,-0.81,-0.91
5.635e-03,-0.83,-0.75
5.636e-03,-0.85,-0.99
5.638e-03,-0.91,-0.79
5.640e-03,-0.91,-0.97
5.642e-03,-0.81,-0.69
5.644e-03,-0.77,-0.87
5.646e-03,-0.71,-0.69
5.648e-03,-0.85,-0.97
5.650e-03,-0.79,-0.75
5.652e-03,-0.97,-0.99
5.654e-03,-0.89,-0.83
5.656e-03,-0.93,-1.03
5.658e-03,-0.93,-0.83
5.659e-03,-0.91,-0.93
5.661e-03,-0.81,-0.75
5.663e-03,-0.83,-0.91
5.665e-03,-0.85,-0.77
5.667e-03,-0.81,-0.91
5.669e-03,-0.85,-0.75
5.671e-03,-0.83,-0.95
5.673e-03,-0.85,-0.75
5.675e-03,-0.87,-0.97
5.677e-03,-0.93,-0.83
5.679e-03,-0.85,-0.97
5.681e-03,-0.93,-0.81
5.683e-03,-0.89,-0.97
5.684e-03,-0.95,-0.81
5.686e-03,-0.91,-0.99
5.688e-03,-0.95,-0.79
5.690e-03,-0.85,-0.89
5.692e-03,-0.71,-0.65
5.694e-03,-0.71,-0.79
5.696e-03,-0.67,-0.63
5.698e-03,-0.79,-0.83
5.700e-03,-0.73,-0.71
5.702e-03,-0.79,-0.81
5.704e-03,-0.65,-0.57
5.706e-03,-0.67,-0.79
5.707e-03,-0.63,-0.57
5.709e-03,-0.73,-0.79
5.711e-03,-0.65,-0.61
5.713e-03,-0.75,-0.89
5.715e-03,-0.75,-0.69
5.717e-03,-0.81,-0.87
5.719e-03,-0.79,-0.69
5.721e-03,-0.71,-0.75
5.723e-03,-0.67,-0.57
5.725e-03,-0.63,-0.77
5.727e-03,-0.73,-0.61
5.729e-03,-0.67,-0.79
5.731e-03,-0.71,-0.63
5.732e-03,-0.71,-0.79
5.734e-03,-0.69,-0.61
5.736e-03,-0.71,-0.79
5.738e-03,-0.69,-0.63
5.740e-03,-0.75,-0.81
5.742e-03,-0.69,-0.67
5.744e-03,-0.77,-0.87
5.746e-03,-0.69,-0.67
5.748e-03,-0.85,-0.89
5.750e-03,-0.81,-0.73
5.752e-03,-0.83,-0.95
5.754e-03,-0.87,-0.77
5.755e-03,-0.89,-0.93
5.757e-03,-0.83,-0.75
5.759e-03,-0.81,-0.87
5.761e-03,-0.75,-0.69
5.763e-03,-0.83,-0.87
5.765e-03,-0.83,-0.75
5.767e-03,-0.77,-0.89
5.769e-03,-0.89,-0.75
5.771e-03,-0.79,-0.93
5.773e-03,-0.81,-0.75
5.775e-03,-0.83,-0.91
5.777e-03,-0.81,-0.71
5.779e-03,-0.73,-0.83
5.780e-03,-0.83,-0.67
5.782e-03,-0.77,-0.83
5.784e-03,-0.79,-0.69
5.786e-03,-0.77,-0.87
5.788e-03,-0.79,-0.67
5.790e-03,-0.71,-0.77
5.792e-03,-0.67,-0.61
5.794e-03,-0.73,-0.81
5.796e-03,-0.73,-0.67
5.798e-03,-0.75,-0.95
5.800e-03,-0.83,-0.67
5.802e-03,-0.91,-0.93
5.803e-03,-0.83,-0.77
5.805e-03,-0.83,-0.89
5.807e-03,-0.77,-0.69
5.809e-03,-0.73,-0.89
5.811e-03,-0.83,-0.71
5.813e-03,-0.77,-0.89
5.815e-03,-0.85,-0.73
5.817e-03,-0.77,-0.93
5.819e-03,-0.85,-0.75
5.821e-03,-0.83,-0.91
5.823e-03,-0.87,-0.79
5.825e-03,-0.83,-0.93
5.827e-03,-0.85,-0.79
5.828e-03,-0.81,-0.91
5.830e-03,-0.89,-0.77
5.832e-03,-0.83,-0.91
5.834e-03,-0.81,-0.73
5.836e-03,-0.85,-0.91
5.838e-03,-0.83,-0.73
5.840e-03,-0.85,-0.91
5.842e-03,-0.81,-0.67
5.844e-03,-0.77,-0.85
5.846e-03,-0.75,-0.69
5.848e-03,-0.85,-0.89
5.850e-03,-0.79,-0.75
5.851e-03,-0.85,-0.97
5.853e-03,-0.91,-0.79
5.855e-03,-0.93,-0.95
5.857e-03,-0.89,-0.77
5.859e-03,-0.87,-0.93
5.861e-03,-0.83,-0.75
5.863e-03,-0.87,-0.91
5.865e-03,-0.85,-0.75
5.867e-03,-0.81,-0.93
5.869e-03,-0.87,-0.75
5.871e-03,-0.75,-0.83
5.873e-03,-0.77,-0.61
5.875e-03,-0.67,-0.81
5.876e-03,-0.71,-0.63
5.878e-03,-0.75,-0.85
5.880e-03,-0.81,-0.65
5.882e-03,-0.67,-0.79
5.884e-03,-0.71,-0.63
5.886e-03,-0.67,-0.85
5.888e-03,-0.75,-0.63
5.890e-03,-0.85,-0.89
5.892e-03,-0.81,-0.75
5.894e-03,-0.83,-0.89
5.896e-03,-0.79,-0.75
5.898e-03,-0.89,-0.89
5.899e-03,-0.73,-0.67
5.901e-03,-0.75,-0.87
5.903e-03,-0.77,-0.69
5.905e-03,-0.81,-0.87
5.907e-03,-0.79,-0.71
5.909e-03,-0.75,-0.87
5.911e-03,-0.79,-0.69
5.913e-03,-0.71,-0.87
5.915e-03,-0.83,-0.67
5.917e-03,-0.79,-0.87
5.919e-03,-0.81,-0.71
5.921e-03,-0.75,-0.89
5.923e-03,-0.81,-0.71
5.924e-03,-0.79,-0.95
5.926e-03,-0.91,-0.79
5.928e-03,-0.87,-0.95
5.930e-03,-0.87,-0.75
5.932e-03,-0.81,-0.87
5.934e-03,-0.83,-0.73
5.936e-03,-0.81,-0.87
5.938e-03,-0.77,-0.67
5.940e-03,-0.77,-0.85
5.942e-03,-0.75,-0.71
5.944e-03,-0.83,-0.85
5.946e-03,-0.73,-0.69
5.947e-03,-0.79,-0.89
5.949e-03,-0.73,-0.69
5.951e-03,-0.85,-0.91
5.953e-03,-0.77,-0.71
5.955e-03,-0.89,-0.91
5.957e-03,-0.83,-0.75
5.959e-03,-0.79,-0.85
5.961e-03,-0.79,-0.71
5.963e-03,-0.77,-0.89
5.965e-03,-0.81,-0.71
5.967e-03,-0.79,-0.87
5.969e-03,-0.83,-0.75
5.971e-03,-0.77,-0.85
5.972e-03,-0.79,-0.69
5.974e-03,-0.75,-0.83
5.976e-03,-0.75,-0.63
5.978e-03,-0.63,-0.87
5.980e-03,-0.75,-0.61
5.982e-03,-0.81,-0.89
5.984e-03,-0.83,-0.77
5.986e-03,-0.81,-0.95
5.988e-03,-0.83,-0.75
5.990e-03,-0.91,-0.99
5.992e-03,-0.87,-0.77
5.994e-03,-0.83,-0.89
5.995e-03,-0.77,-0.73
5.997e-03,-0.89,-0.91
5.999e-03,-0.79,-0.71
6.001e-03,-0.77,-0.85
6.003e-03,-0.75,-0.69
6.005e-03,-0.79,-0.83
6.007e-03,-0.69,-0.61
6.009e-03,-0.67,-0.91
6.011e-03,-0.83,-0.63
6.013e-03,-0.83,-0.91
6.015e-03,-0.85,-0.75
6.017e-03,-0.77,-0.93
6.019e-03,-0.87,-0.73
6.020e-03,-0.87,-0.99
6.022e-03,-0.95,-0.83
6.024e-03,-0.89,-0.95
6.026e-03,-0.93,-0.79
6.028e-03,-0.85,-0.95
6.030e-03,-0.91,-0.79
6.032e-03,-0.89,-0.99
6.034e-03,-0.93,-0.87
6.036e-03,-0.93,-0.97
6.038e-03,-0.85,-0.77
6.040e-03,-0.83,-0.87
6.042e-03,-0.73,-0.69
6.044e-03,-0.79,-0.89
6.045e-03,-0.77,-0.69
6.047e-03,-0.83,-0.89
6.049e-03,-0.77,-0.73
6.051e-03,-0.89,-0.93
6.053e-03,-0.83,-0.79
6.055e-03,-0.87,-0.91
6.057e-03,-0.79,-0.71
6.059e-03,-0.81,-0.87
6.061e-03,-0.79,-0.73
6.063e-03,-0.77,-0.85
6.065e-03,-0.81,-0.73
6.067e-03,-0.73,-0.85
6.068e-03,-0.83,-0.65
6.070e-03,-0.63,-0.75
6.072e-03,-0.73,-0.61
6.074e-03,-0.65,-0.83
6.076e-03,-0.77,-0.65
6.078e-03,-0.75,-0.87
6.080e-03,-0.79,-0.71
6.082e-03,-0.75,-0.81
6.084e-03,-0.69,-0.63
6.086e-03,-0.75,-0.85
6.088e-03,-0.69,-0.61
6.090e-03,-0.83,-0.87
6.092e-03,-0.77,-0.71
6.093e-03,-0.83,-0.87
6.095e-03,-0.73,-0.71
6.097e-03,-0.85,-0.93
6.099e-03,-0.79,-0.75
6.101e-03,-0.91,-0.97
6.103e-03,-0.87,-0.71
6.105e-03,-0.75,-0.89
6.107e-03,-0.81,-0.65
6.109e-03,-0.81,-0.93
6.111e-03,-0.89,-0.77
6.113e-03,-0.79,-0.89
6.115e-03,-0.87,-0.73
6.116e-03,-0.73,-0.83
6.118e-03,-0.73,-0.65
6.120e-03,-0.71,-0.83
6.122e-03,-0.81,-0.67
6.124e-03,-0.73,-0.81
6.126e-03,-0.73,-0.57
6.128e-03,-0.61,-0.77
6.130e-03,-0.71,-0.59
6.132e-03,-0.69,-0.81
6.134e-03,-0.75,-0.63
6.136e-03,-0.73,-0.81
6.138e-03,-0.71,-0.67
6.140e-03,-0.77,-0.81
6.141e-03,-0.65,-0.61
6.143e-03,-0.75,-0.87
6.145e-03,-0.75,-0.67
6.147e-03,-0.87,-0.93
6.149e-03,-0.83,-0.79
6.151e-03,-0.91,-0.97
6.153e-03,-0.85,-0.81
6.155e-03,-0.89,-0.99
6.157e-03,-0.93,-0.81
6.159e-03,-0.87,-0.93
6.161e-03,-0.81,-0.71
6.163e-03,-0.73,-0.83
6.164e-03,-0.77,-0.67
6.166e-03,-0.75,-0.91
6.168e-03,-0.85,-0.71
6.170e-03,-0.81,-0.87
6.172e-03,-0.85,-0.75
6.174e-03,-0.77,-0.87
6.176e-03,-0.79,-0.71
6.178e-03,-0.77,-0.89
6.180e-03,-0.75,-0.71
6.182e-03,-0.85,-0.97
6.184e-03,-0.85,-0.77
6.186e-03,-0.93,-0.99
6.188e-03,-0.89,-0.85
6.189e-03,-0.97,-1.03
6.191e-03,-0.89,-0.83
6.193e-03,-0.99,-1.03
6.195e-03,-0.93,-0.81
6.197e-03,-0.91,-0.97
6.199e-03,-0.89,-0.83
6.201e-03,-0.91,-0.93
6.203e-03,-0.81,-0.71
6.205e-03,-0.77,-0.79
6.207e-03,-0.71,-0.63
6.209e-03,-0.69,-0.87
6.211e-03,-0.83,-0.67
6.212e-03,-0.73,-0.93
6.214e-03,-0.83,-0.69
6.216e-03,-0.85,-0.97
6.218e-03,-0.91,-0.81
6.220e-03,-0.83,-0.95
6.222e-03,-0.93,-0.77
6.224e-03,-0.81,-0.99
6.226e-03,-0.93,-0.77
6.228e-03,-0.85,-0.95
6.230e-03,-0.83,-0.77
6.232e-03,-0.93,-0.99
6.234e-03,-0.83,-0.77
6.236e-03,-0.87,-0.97
6.237e-03,-0.89,-0.83
6.239e-03,-0.89,-0.91
6.241e-03,-0.77,-0.73
6.243e-03,-0.83,-0.87
6.245e-03,-0.75,-0.71
6.247e-03,-0.77,-0.81
6.249e-03,-0.71,-0.65
6.251e-03,-0.71,-0.81
6.253e-03,-0.71,-0.65
6.255e-03,-0.73,-0.83
6.257e-03,-0.73,-0.69
6.259e-03,-0.77,-0.85
6.260e-03,-0.79,-0.71
6.262e-03,-0.77,-0.91
6.264e-03,-0.89,-0.71
6.266e-03,-0.73,-0.85
6.268e-03,-0.79,-0.71
6.270e-03,-0.75,-0.87
6.272e-03,-0.81,-0.71
6.274e-03,-0.77,-0.81
6.276e-03,-0.71,-0.61
6.278e-03,-0.71,-0.77
6.280e-03,-0.67,-0.61
6.282e-03,-0.75,-0.81
6.284e-03,-0.71,-0.61
6.285e-03,-0.71,-0.75
6.287e-03,-0.65,-0.59
6.289e-03,-0.77,-0.93
6.291e-03,-0.81,-0.73
6.293e-03,-0.79,-0.81
6.295e-03,-0.71,-0.67
6.297e-03,-0.75,-0.81
6.299e-03,-0.67,-0.63
6.301e-03,-0.81,-0.87
6.303e-03,-0.79,-0.71
6.305e-03,-0.83,-0.87
6.307e-03,-0.79,-0.69
6.308e-03,-0.77,-0.83
6.310e-03,-0.75,-0.67
6.312e-03,-0.73,-0.87
6.314e-03,-0.81,-0.69
6.316e-03,-0.77,-0.85
6.318e-03,-0.77,-0.67
6.320e-03,-0.75,-0.89
6.322e-03,-0.81,-0.71
6.324e-03,-0.81,-0.95
6.326e-03,-0.83,-0.77
6.328e-03,-0.91,-0.99
6.330e-03,-0.93,-0.85
6.332e-03,-0.93,-1.03
6.333e-03,-0.95,-0.85
6.335e-03,-0.95,-0.99
6.337e-03,-0.89,-0.85
6.339e-03,-0.99,-1.03
6.341e-03,-0.93,-0.83
6.343e-03,-0.93,-0.97
6.345e-03,-0.87,-0.83
6.347e-03,-0.89,-0.93
6.349e-03,-0.81,-0.77
6.351e-03,-0.83,-0.95
6.353e-03,-0.89,-0.77
6.355e-03,-0.87,-0.91
6.356e-03,-0.83,-0.75
6.358e-03,-0.79,-0.95
6.360e-03,-0.91,-0.75
6.362e-03,-0.87,-0.95
6.364e-03,-0.89,-0.75
6.366e-03,-0.79,-0.89
6.368e-03,-0.81,-0.73
6.370e-03,-0.77,-0.91
6.372e-03,-0.87,-0.75
6.374e-03,-0.85,-0.97
6.376e-03,-0.91,-0.81
6.378e-03,-0.91,-0.97
6.380e-03,-0.87,-0.81
6.381e-03,-0.89,-0.95
6.383e-03,-0.85,-0.79
6.385e-03,-0.87,-0.95
6.387e-03,-0.79,-0.75
6.389e-03,-0.95,-0.99
6.391e-03,-0.85,-0.81
6.393e-03,-0.89,-0.93
6.395e-03,-0.81,-0.75
6.397e-03,-0.89,-0.91
6.399e-03,-0.77,-0.69
6.401e-03,-0.75,-0.83
6.403e-03,-0.77,-0.67
6.404e-03,-0.79,-0.87
6.406e-03,-0.81,-0.71
6.408e-03,-0.75,-0.87
6.410e-03,-0.81,-0.71
6.412e-03,-0.79,-0.87
6.414e-03,-0.83,-0.69
6.416e-03,-0.71,-0.91
6.418e-03,-0.83,-0.67
6.420e-03,-0.83,-0.95
6.422e-03,-0.87,-0.81
6.424e-03,-0.83,-0.93
6.426e-03,-0.85,-0.79
6.428e-03,-0.83,-0.89
6.429e-03,-0.81,-0.73
6.431e-03,-0.79,-0.87
6.433e-03,-0.79,-0.71
6.435e-03,-0.81,-0.83
6.437e-03,-0.73,-0.69
6.439e-03,-0.81,-0.89
6.441e-03,-0.81,-0.75
6.443e-03,-0.85,-0.93
6.445e-03,-0.85,-0.75
6.447e-03,-0.79,-0.83
6.449e-03,-0.73,-0.63
6.451e-03,-0.69,-0.87
6.452e-03,-0.77,-0.63
6.454e-03,-0.79,-0.93
6.456e-03,-0.87,-0.77
6.458e-03,-0.83,-0.93
6.460e-03,-0.87,-0.77
6.462e-03,-0.79,-0.87
6.464e-03,-0.83,-0.73
6.466e-03,-0.73,-0.89
6.468e-03,-0.87,-0.69
6.470e-03,-0.79,-0.91
6.472e-03,-0.87,-0.75
6.474e-03,-0.77,-0.83
6.476e-03,-0.77,-0.61
6.477e-03,-0.65,-0.95
6.479e-03,-0.81,-0.63
6.481e-03,-0.91,-0.95
6.483e-03,-0.85,-0.83
6.485e-03,-0.89,-0.95
6.487e-03,-0.73,-0.69
6.489e-03,-0.83,-0.83
6.491e-03,-0.63,-0.63
6.493e-03,-0.83,-0.89
6.495e-03,-0.77,-0.71
6.497e-03,-0.81,-0.89
6.499e-03,-0.77,-0.71
6.500e-03,-0.85,-0.95
6.502e-03,-0.87,-0.79
6.504e-03,-0.87,-0.95
6.506e-03,-0.89,-0.81
6.508e-03,-0.85,-0.93
6.510e-03,-0.89,-0.77
6.512e-03,-0.77,-0.85
6.514e-03,-0.81,-0.71
6.516e-03,-0.77,-0.89
6.518e-03,-0.83,-0.73
6.520e-03,-0.77,-0.89
6.522e-03,-0.79,-0.71
6.524e-03,-0.79,-0.91
6.525e-03,-0.81,-0.75
6.527e-03,-0.81,-0.87
6.529e-03,-0.75,-0.69
6.531e-03,-0.77,-0.83
6.533e-03,-0.73,-0.69
6.535e-03,-0.81,-0.85
6.537e-03,-0.71,-0.67
6.539e-03,-0.85,-0.97
6.541e-03,-0.89,-0.77
6.543e-03,-0.89,-0.93
6.545e-03,-0.83,-0.75
6.547e-03,-0.87,-0.89
6.548e-03,-0.81,-0.73
6.550e-03,-0.79,-0.85
6.552e-03,-0.73,-0.67
6.554e-03,-0.73,-0.85
6.556e-03,-0.83,-0.69
6.558e-03,-0.73,-0.93
6.560e-03,-0.87,-0.69
6.562e-03,-0.83,-0.93
6.564e-03,-0.89,-0.75
6.566e-03,-0.75,-0.85
6.568e-03,-0.79,-0.65
6.570e-03,-0.67,-0.83
6.572e-03,-0.79,-0.65
6.573e-03,-0.71,-0.77
6.575e-03,-0.65,-0.61
6.577e-03,-0.69,-0.81
6.579e-03,-0.71,-0.63
6.581e-03,-0.79,-0.89
6.583e-03,-0.81,-0.75
6.585e-03,-0.87,-0.93
6.587e-03,-0.83,-0.79
6.589e-03,-0.93,-0.93
6.591e-03,-0.79,-0.79
6.593e-03,-0.87,-0.95
6.595e-03,-0.81,-0.73
6.596e-03,-0.79,-0.85
6.598e-03,-0.77,-0.71
6.600e-03,-0.73,-0.85
6.602e-03,-0.79,-0.71
6.604e-03,-0.75,-0.87
6.606e-03,-0.83,-0.73
6.608e-03,-0.81,-0.89
6.610e-03,-0.83,-0.73
6.612e-03,-0.73,-0.83
6.614e-03,-0.79,-0.67
6.616e-03,-0.71,-0.79
6.618e-03,-0.69,-0.61
6.620e-03,-0.65,-0.79
6.621e-03,-0.71,-0.63
6.623e-03,-0.75,-0.81
6.625e-03,-0.71,-0.65
6.627e-03,-0.81,-0.91
6.629e-03,-0.79,-0.67
6.631e-03,-0.75,-0.85
6.633e-03,-0.73,-0.67
6.635e-03,-0.85,-0.93
6.637e-03,-0.81,-0.77
6.639e-03,-0.89,-1.03
6.641e-03,-0.87,-0.81
6.643e-03,-1.01,-1.05
6.645e-03,-0.95,-0.91
6.646e-03,-1.03,-1.09
6.648e-03,-1.01,-0.95
6.650e-03,-0.97,-1.03
6.652e-03,-0.97,-0.87
6.654e-03,-0.97,-1.09
6.656e-03,-1.05,-0.93
6.658e-03,-0.95,-1.07
6.660e-03,-0.99,-0.83
6.662e-03,-0.83,-0.95
6.664e-03,-0.93,-0.81
6.666e-03,-0.83,-0.91
6.668e-03,-0.85,-0.69
6.669e-03,-0.71,-0.95
6.671e-03,-0.83,-0.65
6.673e-03,-0.89,-0.97
6.675e-03,-0.91,-0.73
6.677e-03,-0.77,-0.83
6.679e-03,-0.71,-0.67
6.681e-03,-0.75,-0.89
6.683e-03,-0.75,-0.67
6.685e-03,-0.87,-0.89
6.687e-03,-0.73,-0.71
6.689e-03,-0.81,-0.97
6.691e-03,-0.75,-0.71
6.693e-03,-0.91,-0.97
6.694e-03,-0.85,-0.71
6.696e-03,-0.75,-0.83
6.698e-03,-0.75,-0.69
6.700e-03,-0.73,-0.87
6.702e-03,-0.77,-0.65
6.704e-03,-0.77,-0.85
6.706e-03,-0.83,-0.71
6.708e-03,-0.73,-0.85
6.710e-03,-0.73,-0.63
6.712e-03,-0.77,-0.89
6.714e-03,-0.85,-0.69
6.716e-03,-0.71,-0.79
6.717e-03,-0.73,-0.63
6.719e-03,-0.69,-0.81
6.721e-03,-0.77,-0.67
6.723e-03,-0.75,-0.87
6.725e-03,-0.77,-0.71
6.727e-03,-0.81,-0.83
6.729e-03,-0.69,-0.61
6.731e-03,-0.71,-0.79
6.733e-03,-0.67,-0.63
6.735e-03,-0.71,-0.89
6.737e-03,-0.67,-0.61
6.739e-03,-0.87,-0.91
6.741e-03,-0.79,-0.69
6.742e-03,-0.79,-0.81
6.744e-03,-0.69,-0.65
6.746e-03,-0.71,-0.83
6.748e-03,-0.79,-0.67
6.750e-03,-0.75,-0.81
6.752e-03,-0.71,-0.63
6.754e-03,-0.73,-0.81
6.756e-03,-0.77,-0.69
6.758e-03,-0.71,-0.87
6.760e-03,-0.83,-0.69
6.762e-03,-0.75,-0.91
6.764e-03,-0.85,-0.75
6.765e-03,-0.83,-0.93
6.767e-03,-0.83,-0.71
6.769e-03,-0.79,-0.91
6.771e-03,-0.81,-0.75
6.773e-03,-0.85,-0.95
6.775e-03,-0.89,-0.81
6.777e-03,-0.89,-0.95
6.779e-03,-0.83,-0.81
6.781e-03,-0.93,-0.97
6.783e-03,-0.85,-0.81
6.785e-03,-0.97,-1.01
6.787e-03,-0.93,-0.85
6.789e-03,-0.91,-0.95
6.790e-03,-0.83,-0.81
6.792e-03,-0.85,-0.91
6.794e-03,-0.85,-0.77
6.796e-03,-0.81,-0.93
6.798e-03,-0.85,-0.75
6.800e-03,-0.85,-0.97
6.802e-03,-0.91,-0.81
6.804e-03,-0.85,-0.99
6.806e-03,-0.95,-0.83
6.808e-03,-0.81,-0.87
6.810e-03,-0.85,-0.75
6.812e-03,-0.81,-0.95
6.813e-03,-0.83,-0.71
6.815e-03,-0.87,-0.93
6.817e-03,-0.85,-0.71
6.819e-03,-0.79,-0.83
6.821e-03,-0.77,-0.69
6.823e-03,-0.75,-0.89
6.825e-03,-0.81,-0.67
6.827e-03,-0.75,-0.87
6.829e-03,-0.77,-0.67
6.831e-03,-0.85,-0.87
6.833e-03,-0.77,-0.69
6.835e-03,-0.81,-0.85
6.837e-03,-0.77,-0.71
6.838e-03,-0.81,-0.97
6.840e-03,-0.79,-0.73
6.842e-03,-0.93,-0.97
6.844e-03,-0.83,-0.65
6.846e-03,-0.69,-0.83
6.848e-03,-0.69,-0.63
6.850e-03,-0.77,-0.85
6.852e-03,-0.79,-0.69
6.854e-03,-0.77,-0.93
6.856e-03,-0.91,-0.75
6.858e-03,-0.81,-0.93
6.860e-03,-0.89,-0.73
6.861e-03,-0.71,-0.83
6.863e-03,-0.75,-0.65
6.865e-03,-0.65,-0.87
6.867e-03,-0.77,-0.65
6.869e-03,-0.79,-0.91
6.871e-03,-0.79,-0.73
6.873e-03,-0.85,-0.91
6.875e-03,-0.81,-0.77
6.877e-03,-0.87,-0.89
6.879e-03,-0.79,-0.75
6.881e-03,-0.87,-1.03
6.883e-03,-0.93,-0.79
6.885e-03,-0.99,-1.01
6.886e-03,-0.85,-0.75
6.888e-03,-0.81,-0.91
6.890e-03,-0.81,-0.73
6.892e-03,-0.87,-0.91
6.894e-03,-0.79,-0.71
6.896e-03,-0.77,-0.95
6.898e-03,-0.87,-0.73
6.900e-03,-0.85,-0.93
6.902e-03,-0.85,-0.69
6.904e-03,-0.69,-0.79
6.906e-03,-0.73,-0.59
6.908e-03,-0.59,-0.75
6.909e-03,-0.73,-0.57
6.911e-03,-0.67,-0.83
6.913e-03,-0.81,-0.63
6.915e-03,-0.69,-0.85
6.917e-03,-0.83,-0.65
6.919e-03,-0.79,-0.93
6.921e-03,-0.83,-0.73
6.923e-03,-0.87,-0.91
6.925e-03,-0.81,-0.71
6.927e-03,-0.77,-0.83
6.929e-03,-0.75,-0.67
6.931e-03,-0.77,-0.79
6.933e-03,-0.69,-0.65
6.934e-03,-0.79,-0.81
6.936e-03,-0.71,-0.67
6.938e-03,-0.75,-0.87
6.940e-03,-0.79,-0.69
6.942e-03,-0.75,-0.79
6.944e-03,-0.69,-0.63
6.946e-03,-0.71,-0.89
6.948e-03,-0.79,-0.67
6.950e-03,-0.83,-0.99
6.952e-03,-0.93,-0.79
6.954e-03,-0.85,-0.99
6.956e-03,-0.93,-0.81
6.957e-03,-0.89,-0.97
6.959e-03,-0.93,-0.81
6.961e-03,-0.85,-0.97
6.963e-03,-0.91,-0.81
6.965e-03,-0.87,-0.93
6.967e-03,-0.79,-0.73
6.969e-03,-0.79,-0.87
6.971e-03,-0.79,-0.73
6.973e-03,-0.85,-0.89
6.975e-03,-0.75,-0.71
6.977e-03,-0.81,-0.81
6.979e-03,-0.65,-0.61
6.981e-03,-0.73,-0.87
6.982e-03,-0.71,-0.69
6.984e-03,-0.87,-0.93
6.986e-03,-0.83,-0.77
6.988e-03,-0.87,-0.91
6.990e-03,-0.79,-0.75
6.992e-03,-0.87,-0.93
6.994e-03,-0.81,-0.73
6.996e-03,-0.75,-0.83
6.998e-03,-0.77,-0.69
7.000e-03,-0.71,-0.91
7.002e-03,-0.83,-0.67
7.004e-03,-0.83,-0.93
7.005e-03,-0.87,-0.77
7.007e-03,-0.85,-0.93
7.009e-03,-0.93,-0.73
7.011e-03,-0.77,-0.83
7.013e-03,-0.73,-0.65
7.015e-03,-0.69,-0.79
7.017e-03,-0.73,-0.63
7.019e-03,-0.73,-0.87
7.021e-03,-0.81,-0.71
7.023e-03,-0.79,-0.87
7.025e-03,-0.77,-0.73
7.027e-03,-0.85,-0.91
7.029e-03,-0.83,-0.77
7.030e-03,-0.87,-0.89
7.032e-03,-0.79,-0.75
7.034e-03,-0.85,-0.89
7.036e-03,-0.71,-0.69
7.038e-03,-0.77,-0.93
7.040e-03,-0.87,-0.71
7.042e-03,-0.79,-0.95
7.044e-03,-0.91,-0.75
7.046e-03,-0.81,-0.91
7.048e-03,-0.81,-0.75
7.050e-03,-0.79,-0.89
7.052e-03,-0.85,-0.73
7.053e-03,-0.75,-0.83
7.055e-03,-0.77,-0.69
7.057e-03,-0.71,-0.85
7.059e-03,-0.79,-0.67
7.061e-03,-0.73,-0.83
7.063e-03,-0.79,-0.63
7.065e-03,-0.67,-0.73
7.067e-03,-0.65,-0.57
7.069e-03,-0.71,-0.81
7.071e-03,-0.69,-0.67
7.073e-03,-0.79,-0.89
7.075e-03,-0.81,-0.71
7.077e-03,-0.83,-0.87
7.078e-03,-0.73,-0.69
7.080e-03,-0.79,-0.91
7.082e-03,-0.77,-0.73
7.084e-03,-0.89,-0.91
7.086e-03,-0.75,-0.71
7.088e-03,-0.79,-0.79
7.090e-03,-0.71,-0.59
7.092e-03,-0.65,-0.89
7.094e-03,-0.71,-0.59
7.096e-03,-0.83,-0.97
7.098e-03,-0.91,-0.77
7.100e-03,-0.89,-0.97
7.101e-03,-0.95,-0.83
7.103e-03,-0.81,-0.89
7.105e-03,-0.87,-0.73
7.107e-03,-0.73,-0.81
7.109e-03,-0.75,-0.65
7.111e-03,-0.67,-0.81
7.113e-03,-0.75,-0.65
7.115e-03,-0.75,-0.87
7.117e-03,-0.75,-0.71
7.119e-03,-0.83,-0.87
7.121e-03,-0.83,-0.73
7.123e-03,-0.79,-0.91
7.125e-03,-0.83,-0.71
7.126e-03,-0.79,-0.83
7.128e-03,-0.75,-0.69
7.130e-03,-0.77,-0.85
7.132e-03,-0.69,-0.67
7.134e-03,-0.83,-0.95
7.136e-03,-0.85,-0.77
7.138e-03,-0.89,-0.95
7.140e-03,-0.77,-0.71
7.142e-03,-0.77,-0.87
7.144e-03,-0.77,-0.71
7.146e-03,-0.79,-0.93
7.148e-03,-0.91,-0.77
7.149e-03,-0.79,-0.93
7.151e-03,-0.91,-0.75
7.153e-03,-0.85,-0.93
7.155e-03,-0.85,-0.69
7.157e-03,-0.71,-0.83
7.159e-03,-0.81,-0.69
7.161e-03,-0.75,-0.87
7.163e-03,-0.81,-0.69
7.165e-03,-0.77,-0.93
7.167e-03,-0.87,-0.71
7.169e-03,-0.87,-0.93
7.171e-03,-0.79,-0.75
7.173e-03,-0.85,-0.89
7.174e-03,-0.79,-0.73
7.176e-03,-0.81,-0.87
7.178e-03,-0.77,-0.73
7.180e-03,-0.85,-0.95
7.182e-03,-0.85,-0.77
7.184e-03,-0.85,-0.91
7.186e-03,-0.83,-0.71
7.188e-03,-0.79,-0.81
7.190e-03,-0.73,-0.63
7.192e-03,-0.67,-0.87
7.194e-03,-0.71,-0.61
7.196e-03,-0.79,-0.87
7.197e-03,-0.81,-0.71
7.199e-03,-0.75,-0.85
7.201e-03,-0.81,-0.69
7.203e-03,-0.71,-0.83
7.205e-03,-0.77,-0.67
7.207e-03,-0.71,-0.91
7.209e-03,-0.85,-0.69
7.211e-03,-0.79,-0.85
7.213e-03,-0.75,-0.65
7.215e-03,-0.71,-0.89
7.217e-03,-0.77,-0.67
7.219e-03,-0.85,-0.89
7.221e-03,-0.77,-0.71
7.222e-03,-0.79,-0.83
7.224e-03,-0.71,-0.67
7.226e-03,-0.79,-0.85
7.228e-03,-0.77,-0.71
7.230e-03,-0.79,-0.87
7.232e-03,-0.77,-0.71
7.234e-03,-0.81,-0.93
7.236e-03,-0.81,-0.77
7.238e-03,-0.87,-0.95
7.240e-03,-0.91,-0.81
7.242e-03,-0.81,-0.87
7.244e-03,-0.79,-0.71
7.245e-03,-0.73,-0.83
7.247e-03,-0.79,-0.71
7.249e-03,-0.75,-0.91
7.251e-03,-0.87,-0.71
7.253e-03,-0.79,-0.89
7.255e-03,-0.81,-0.71
7.257e-03,-0.75,-0.87
7.259e-03,-0.85,-0.73
7.261e-03,-0.77,-0.91
7.263e-03,-0.87,-0.71
7.265e-03,-0.77,-0.83
7.267e-03,-0.75,-0.69
7.269e-03,-0.77,-0.85
7.270e-03,-0.71,-0.65
7.272e-03,-0.79,-0.83
7.274e-03,-0.71,-0.69
7.276e-03,-0.83,-0.87
7.278e-03,-0.77,-0.71
7.280e-03,-0.79,-0.87
7.282e-03,-0.75,-0.71
7.284e-03,-0.83,-0.87
7.286e-03,-0.79,-0.75
7.288e-03,-0.79,-0.85
7.290e-03,-0.73,-0.67
7.292e-03,-0.75,-0.81
7.294e-03,-0.75,-0.67
7.295e-03,-0.73,-0.85
7.297e-03,-0.77,-0.69
7.299e-03,-0.77,-0.85
7.301e-03,-0.79,-0.67
7.303e-03,-0.69,-0.79
7.305e-03,-0.75,-0.65
7.307e-03,-0.69,-0.89
7.309e-03,-0.83,-0.69
7.311e-03,-0.79,-0.87
7.313e-03,-0.73,-0.69
7.315e-03,-0.81,-0.85
7.317e-03,-0.73,-0.67
7.318e-03,-0.81,-0.89
7.320e-03,-0.79,-0.71
7.322e-03,-0.81,-0.83
7.324e-03,-0.73,-0.69
7.326e-03,-0.81,-0.97
7.328e-03,-0.81,-0.73
7.330e-03,-0.95,-1.03
7.332e-03,-0.91,-0.85
7.334e-03,-0.99,-1.07
7.336e-03,-0.91,-0.85
7.338e-03,-1.03,-1.07
7.340e-03,-0.95,-0.89
7.342e-03,-0.93,-0.99
7.343e-03,-0.95,-0.83
7.345e-03,-0.83,-0.89
7.347e-03,-0.85,-0.75
7.349e-03,-0.75,-0.83
7.351e-03,-0.81,-0.67
7.353e-03,-0.71,-0.83
7.355e-03,-0.83,-0.69
7.357e-03,-0.71,-0.79
7.359e-03,-0.77,-0.65
7.361e-03,-0.75,-0.81
7.363e-03,-0.75,-0.65
7.365e-03,-0.75,-0.87
7.366e-03,-0.77,-0.67
7.368e-03,-0.83,-0.89
7.370e-03,-0.79,-0.67
7.372e-03,-0.81,-0.83
7.374e-03,-0.73,-0.67
7.376e-03,-0.75,-0.77
7.378e-03,-0.61,-0.59
7.380e-03,-0.67,-0.75
7.382e-03,-0.65,-0.59
7.384e-03,-0.71,-0.87
7.386e-03,-0.77,-0.65
7.388e-03,-0.73,-0.85
7.390e-03,-0.79,-0.67
7.391e-03,-0.75,-0.93
7.393e-03,-0.85,-0.73
7.395e-03,-0.83,-0.91
7.397e-03,-0.87,-0.75
7.399e-03,-0.79,-0.91
7.401e-03,-0.89,-0.77
7.403e-03,-0.79,-1.01
7.405e-03,-0.91,-0.79
7.407e-03,-0.93,-1.01
7.409e-03,-0.93,-0.89
7.411e-03,-0.95,-1.01
7.413e-03,-0.81,-0.69
7.414e-03,-0.77,-0.79
7.416e-03,-0.71,-0.63
7.418e-03,-0.77,-0.91
7.420e-03,-0.81,-0.71
7.422e-03,-0.79,-0.83
7.424e-03,-0.69,-0.65
7.426e-03,-0.73,-0.83
7.428e-03,-0.71,-0.61
7.430e-03,-0.81,-0.93
7.432e-03,-0.85,-0.75
7.434e-03,-0.89,-0.97
7.436e-03,-0.89,-0.81
7.438e-03,-0.87,-0.97
7.439e-03,-0.87,-0.81
7.441e-03,-0.91,-1.01
7.443e-03,-0.95,-0.87
7.445e-03,-0.93,-1.01
7.447e-03,-0.89,-0.79
7.449e-03,-0.81,-1.01
7.451e-03,-0.99,-0.79
7.453e-03,-0.93,-1.01
7.455e-03,-0.95,-0.75
7.457e-03,-0.77,-0.85
7.459e-03,-0.81,-0.67
7.461e-03,-0.71,-0.93
7.462e-03,-0.87,-0.67
7.464e-03,-0.85,-0.93
7.466e-03,-0.85,-0.75
7.468e-03,-0.81,-0.91
7.470e-03,-0.79,-0.71
7.472e-03,-0.85,-0.97
7.474e-03,-0.85,-0.79
7.476e-03,-0.95,-0.97
7.478e-03,-0.81,-0.73
7.480e-03,-0.79,-0.85
7.482e-03,-0.77,-0.71
7.484e-03,-0.77,-0.85
7.486e-03,-0.77,-0.71
7.487e-03,-0.75,-0.85
7.489e-03,-0.75,-0.69
7.491e-03,-0.77,-0.91
7.493e-03,-0.87,-0.73
7.495e-03,-0.75,-0.99
7.497e-03,-0.93,-0.73
7.499e-03,-0.89,-0.95
7.501e-03,-0.89,-0.81
7.503e-03,-0.85,-0.97
7.505e-03,-0.93,-0.81
7.507e-03,-0.85,-0.91
7.509e-03,-0.87,-0.71
7.510e-03,-0.79,-0.93
7.512e-03,-0.77,-0.69
7.514e-03,-0.95,-0.99
7.516e-03,-0.81,-0.73
7.518e-03,-0.81,-0.85
7.520e-03,-0.75,-0.71
7.522e-03,-0.81,-0.85
7.524e-03,-0.73,-0.71
7.526e-03,-0.83,-0.87
7.528e-03,-0.71,-0.67
7.530e-03,-0.83,-0.87
7.532e-03,-0.79,-0.73
7.534e-03,-0.79,-0.91
7.535e-03,-0.81,-0.73
7.537e-03,-0.85,-0.99
7.539e-03,-0.93,-0.83
7.541e-03,-0.89,-0.95
7.543e-03,-0.83,-0.73
7.545e-03,-0.79,-0.91
7.547e-03,-0.87,-0.77
7.549e-03,-0.77,-0.85
7.551e-03,-0.83,-0.67
7.553e-03,-0.67,-0.79
7.555e-03,-0.73,-0.63
7.557e-03,-0.71,-0.91
7.558e-03,-0.81,-0.67
7.560e-03,-0.85,-0.91
7.562e-03,-0.83,-0.79
7.564e-03,-0.87,-0.93
7.566e-03,-0.85,-0.77
7.568e-03,-0.85,-0.89
7.570e-03,-0.75,-0.73
7.572e-03,-0.87,-0.91
7.574e-03,-0.83,-0.77
7.576e-03,-0.85,-0.91
7.578e-03,-0.77,-0.73
7.580e-03,-0.77,-0.83
7.582e-03,-0.77,-0.65
7.583e-03,-0.71,-0.79
7.585e-03,-0.75,-0.63
7.587e-03,-0.69,-0.83
7.589e-03,-0.77,-0.67
7.591e-03,-0.73,-0.93
7.593e-03,-0.87,-0.71
7.595e-03,-0.85,-0.95
7.597e-03,-0.93,-0.81
7.599e-03,-0.85,-0.95
7.601e-03,-0.91,-0.77
7.603e-03,-0.77,-0.95
7.605e-03,-0.87,-0.75
7.606e-03,-0.91,-0.95
7.608e-03,-0.91,-0.79
7.610e-03,-0.85,-0.93
7.612e-03,-0.81,-0.73
7.614e-03,-0.81,-0.87
7.616e-03,-0.73,-0.69
7.618e-03,-0.85,-0.89
7.620e-03,-0.75,-0.73
7.622e-03,-0.87,-0.91
7.624e-03,-0.83,-0.73
7.626e-03,-0.83,-0.89
7.628e-03,-0.81,-0.73
7.630e-03,-0.81,-0.85
7.631e-03,-0.75,-0.63
7.633e-03,-0.69,-0.83
7.635e-03,-0.69,-0.59
7.637e-03,-0.77,-0.85
7.639e-03,-0.79,-0.71
7.641e-03,-0.79,-0.87
7.643e-03,-0.81,-0.73
7.645e-03,-0.75,-0.93
7.647e-03,-0.85,-0.73
7.649e-03,-0.85,-1.01
7.651e-03,-0.95,-0.83
7.653e-03,-0.89,-0.97
7.654e-03,-0.89,-0.83
7.656e-03,-0.89,-0.93
7.658e-03,-0.75,-0.71
7.660e-03,-0.83,-0.97
7.662e-03,-0.87,-0.75
7.664e-03,-0.83,-0.93
7.666e-03,-0.79,-0.73
7.668e-03,-0.93,-0.97
7.670e-03,-0.87,-0.85
7.672e-03,-0.95,-1.07
7.674e-03,-0.91,-0.83
7.676e-03,-1.03,-1.09
7.678e-03,-0.95,-0.87
7.679e-03,-0.93,-0.97
7.681e-03,-0.87,-0.81
7.683e-03,-0.91,-0.97
7.685e-03,-0.91,-0.75
7.687e-03,-0.77,-0.97
7.689e-03,-0.87,-0.75
7.691e-03,-0.87,-0.99
7.693e-03,-0.93,-0.85
7.695e-03,-0.89,-0.99
7.697e-03,-0.85,-0.75
7.699e-03,-0.91,-1.09
7.701e-03,-1.05,-0.85
7.702e-03,-0.93,-0.99
7.704e-03,-0.91,-0.79
7.706e-03,-0.85,-0.91
7.708e-03,-0.79,-0.73
7.710e-03,-0.85,-0.91
7.712e-03,-0.79,-0.73
7.714e-03,-0.81,-0.89
7.716e-03,-0.79,-0.71
7.718e-03,-0.81,-0.91
7.720e-03,-0.79,-0.75
7.722e-03,-0.89,-0.95
7.724e-03,-0.85,-0.79
7.726e-03,-0.89,-0.93
7.727e-03,-0.85,-0.79
7.729e-03,-0.87,-0.95
7.731e-03,-0.89,-0.73
7.733e-03,-0.75,-0.77
7.735e-03,-0.69,-0.61
7.737e-03,-0.67,-0.93
7.739e-03,-0.81,-0.67
7.741e-03,-0.83,-0.93
7.743e-03,-0.85,-0.71
7.745e-03,-0.73,-0.93
7.747e-03,-0.85,-0.71
7.749e-03,-0.77,-0.91
7.750e-03,-0.83,-0.73
7.752e-03,-0.85,-0.93
7.754e-03,-0.81,-0.77
7.756e-03,-0.83,-0.95
7.758e-03,-0.87,-0.77
7.760e-03,-0.91,-0.93
7.762e-03,-0.79,-0.73
7.764e-03,-0.83,-0.83
7.766e-03,-0.75,-0.67
7.768e-03,-0.79,-0.91
7.770e-03,-0.77,-0.71
7.772e-03,-0.93,-0.97
7.774e-03,-0.85,-0.77
7.775e-03,-0.83,-0.85
7.777e-03,-0.75,-0.67
7.779e-03,-0.73,-0.81
7.781e-03,-0.73,-0.67
7.783e-03,-0.75,-0.81
7.785e-03,-0.73,-0.63
7.787e-03,-0.69,-0.79
7.789e-03,-0.73,-0.65
7.791e-03,-0.69,-0.89
7.793e-03,-0.83,-0.67
7.795e-03,-0.81,-0.99
7.797e-03,-0.97,-0.81
7.798e-03,-0.85,-0.93
7.800e-03,-0.91,-0.77
7.802e-03,-0.81,-0.89
7.804e-03,-0.83,-0.73
7.806e-03,-0.79,-0.85
7.808e-03,-0.77,-0.73
7.810e-03,-0.81,-0.85
7.812e-03,-0.71,-0.65
7.814e-03,-0.71,-0.87
7.816e-03,-0.75,-0.65
7.818e-03,-0.85,-0.91
7.820e-03,-0.79,-0.75
7.822e-03,-0.87,-0.91
7.823e-03,-0.77,-0.69
7.825e-03,-0.75,-0.89
7.827e-03,-0.81,-0.69
7.829e-03,-0.75,-0.83
7.831e-03,-0.71,-0.67
7.833e-03,-0.79,-0.85
7.835e-03,-0.75,-0.67
7.837e-03,-0.73,-0.85
7.839e-03,-0.83,-0.71
7.841e-03,-0.75,-0.87
7.843e-03,-0.83,-0.71
7.845e-03,-0.77,-0.93
7.846e-03,-0.89,-0.75
7.848e-03,-0.83,-0.91
7.850e-03,-0.79,-0.73
7.852e-03,-0.79,-0.87
7.854e-03,-0.83,-0.67
7.856e-03,-0.75,-0.85
7.858e-03,-0.75,-0.67
7.860e-03,-0.79,-0.93
7.862e-03,-0.77,-0.69
7.864e-03,-0.93,-1.07
7.866e-03,-0.95,-0.83
7.868e-03,-0.89,-0.91
7.870e-03,-0.79,-0.71
7.871e-03,-0.81,-0.85
7.873e-03,-0.73,-0.67
7.875e-03,-0.79,-0.87
7.877e-03,-0.77,-0.69
7.879e-03,-0.83,-0.97
7.881e-03,-0.91,-0.79
7.883e-03,-0.89,-0.97
7.885e-03,-0.83,-0.73
7.887e-03,-0.73,-0.85
7.889e-03,-0.81,-0.67
7.891e-03,-0.73,-0.91
7.893e-03,-0.85,-0.71
7.895e-03,-0.83,-0.91
7.896e-03,-0.87,-0.67
7.898e-03,-0.69,-0.79
7.900e-03,-0.75,-0.65
7.902e-03,-0.69,-0.83
7.904e-03,-0.71,-0.63
7.906e-03,-0.79,-0.93
7.908e-03,-0.85,-0.73
7.910e-03,-0.87,-0.93
7.912e-03,-0.83,-0.77
7.914e-03,-0.87,-0.89
7.916e-03,-0.79,-0.75
7.918e-03,-0.83,-0.91
7.919e-03,-0.75,-0.73
7.921e-03,-0.89,-0.93
7.923e-03,-0.79,-0.75
7.925e-03,-0.83,-0.89
7.927e-03,-0.79,-0.71
7.929e-03,-0.75,-0.83
7.931e-03,-0.71,-0.63
7.933e-03,-0.71,-0.79
7.935e-03,-0.77,-0.67
7.937e-03,-0.71,-0.79
7.939e-03,-0.77,-0.63
7.941e-03,-0.67,-0.93
7.943e-03,-0.79,-0.67
7.944e-03,-0.83,-0.93
7.946e-03,-0.81,-0.73
7.948e-03,-0.85,-0.97
7.950e-03,-0.93,-0.81
7.952e-03,-0.93,-0.97
7.954e-03,-0.89,-0.83
7.956e-03,-0.93,-0.95
7.958e-03,-0.83,-0.79
7.960e-03,-0.87,-0.91
7.962e-03,-0.73,-0.71
7.964e-03,-0.81,-0.83
7.966e-03,-0.71,-0.67
7.967e-03,-0.81,-0.83
7.969e-03,-0.71,-0.63
7.971e-03,-0.75,-0.85
7.973e-03,-0.69,-0.65
7.975e-03,-0.81,-0.95
7.977e-03,-0.87,-0.71
7.979e-03,-0.91,-0.97
7.981e-03,-0.93,-0.81
7.983e-03,-0.85,-0.95
7.985e-03,-0.85,-0.77
7.987e-03,-0.87,-0.95
7.989e-03,-0.91,-0.77
7.991e-03,-0.81,-0.97
7.992e-03,-0.89,-0.81
7.994e-03,-0.89,-0.97
7.996e-03,-0.87,-0.75
7.998e-03,-0.81,-0.87
8.000e-03,-0.79,-0.69
8.002e-03,-0.71,-0.79
8.004e-03,-0.69,-0.63
8.006e-03,-0.77,-0.91
8.008e-03,-0.77,-0.69
8.010e-03,-0.89,-0.95
8.012e-03,-0.83,-0.77
8.014e-03,-0.87,-0.97
8.015e-03,-0.85,-0.79
8.017e-03,-0.87,-0.95
8.019e-03,-0.83,-0.79
8.021e-03,-0.87,-0.91
8.023e-03,-0.75,-0.73
8.025e-03,-0.81,-0.87
8.027e-03,-0.81,-0.69
8.029e-03,-0.73,-0.85
8.031e-03,-0.79,-0.67
8.033e-03,-0.77,-0.89
8.035e-03,-0.85,-0.73
8.037e-03,-0.79,-0.87
8.039e-03,-0.81,-0.69
8.040e-03,-0.71,-0.87
8.042e-03,-0.83,-0.69
8.044e-03,-0.79,-0.93
8.046e-03,-0.85,-0.73
8.048e-03,-0.85,-0.91
8.050e-03,-0.81,-0.75
8.052e-03,-0.87,-0.93
8.054e-03,-0.81,-0.75
8.056e-03,-0.81,-0.89
8.058e-03,-0.75,-0.69
8.060e-03,-0.85,-0.93
8.062e-03,-0.83,-0.77
8.063e-03,-0.85,-0.93
8.065e-03,-0.81,-0.77
8.067e-03,-0.89,-0.91
8.069e-03,-0.77,-0.73
8.071e-03,-0.79,-0.83
8.073e-03,-0.71,-0.65
8.075e-03,-0.71,-0.81
8.077e-03,-0.73,-0.67
8.079e-03,-0.75,-0.85
8.081e-03,-0.79,-0.71
8.083e-03,-0.77,-0.91
8.085e-03,-0.79,-0.69
8.087e-03,-0.85,-0.93
8.088e-03,-0.85,-0.73
8.090e-03,-0.77,-0.91
8.092e-03,-0.83,-0.75
8.094e-03,-0.75,-0.85
8.096e-03,-0.69,-0.63
8.098e-03,-0.77,-0.85
8.100e-03,-0.75,-0.71
8.102e-03,-0.77,-0.87
8.104e-03,-0.79,-0.71
8.106e-03,-0.83,-0.93
8.108e-03,-0.79,-0.75
8.110e-03,-0.91,-0.91
8.111e-03,-0.81,-0.75
8.113e-03,-0.83,-0.91
8.115e-03,-0.81,-0.73
8.117e-03,-0.81,-0.83
8.119e-03,-0.73,-0.63
8.121e-03,-0.71,-0.97
8.123e-03,-0.83,-0.65
8.125e-03,-0.93,-1.03
8.127e-03,-0.95,-0.87
8.129e-03,-0.95,-1.03
8.131e-03,-1.01,-0.83
8.133e-03,-0.87,-0.95
8.135e-03,-0.85,-0.75
8.136e-03,-0.77,-0.87
8.138e-03,-0.83,-0.67
8.140e-03,-0.71,-0.85
8.142e-03,-0.81,-0.67
8.144e-03,-0.77,-0.85
8.146e-03,-0.81,-0.67
8.148e-03,-0.71,-0.87
8.150e-03,-0.81,-0.67
8.152e-03,-0.83,-0.87
8.154e-03,-0.79,-0.73
8.156e-03,-0.79,-0.93
8.158e-03,-0.81,-0.73
8.159e-03,-0.89,-0.91
8.161e-03,-0.79,-0.75
8.163e-03,-0.87,-0.97
8.165e-03,-0.85,-0.79
8.167e-03,-0.95,-0.99
8.169e-03,-0.85,-0.83
8.171e-03,-0.95,-0.99
8.173e-03,-0.89,-0.83
8.175e-03,-0.85,-0.91
8.177e-03,-0.85,-0.75
8.179e-03,-0.79,-0.85
8.181e-03,-0.73,-0.67
8.183e-03,-0.69,-0.85
8.184e-03,-0.83,-0.67
8.186e-03,-0.73,-0.95
8.188e-03,-0.81,-0.71
8.190e-03,-0.87,-1.01
8.192e-03,-0.93,-0.83
8.194e-03,-0.85,-0.93
8.196e-03,-0.79,-0.71
8.198e-03,-0.79,-0.83
8.200e-03,-0.73,-0.67
8.202e-03,-0.77,-0.81
8.204e-03,-0.71,-0.67
8.206e-03,-0.77,-0.89
8.207e-03,-0.79,-0.69
8.209e-03,-0.83,-0.87
8.211e-03,-0.77,-0.73
8.213e-03,-0.81,-0.89
8.215e-03,-0.79,-0.71
8.217e-03,-0.85,-0.97
8.219e-03,-0.87,-0.77
8.221e-03,-0.95,-0.97
8.223e-03,-0.81,-0.73
8.225e-03,-0.79,-0.83
8.227e-03,-0.79,-0.69
8.229e-03,-0.73,-0.81
8.231e-03,-0.73,-0.61
8.232e-03,-0.65,-0.87
8.234e-03,-0.77,-0.63
8.236e-03,-0.79,-0.89
8.238e-03,-0.85,-0.77
8.240e-03,-0.79,-0.89
8.242e-03,-0.85,-0.71
8.244e-03,-0.77,-0.91
8.246e-03,-0.89,-0.73
8.248e-03,-0.83,-0.93
8.250e-03,-0.83,-0.77
8.252e-03,-0.87,-0.95
8.254e-03,-0.85,-0.81
8.255e-03,-0.91,-0.95
8.257e-03,-0.83,-0.77
8.259e-03,-0.91,-0.93
8.261e-03,-0.83,-0.75
8.263e-03,-0.81,-0.85
8.265e-03,-0.67,-0.61
8.267e-03,-0.69,-0.81
8.269e-03,-0.73,-0.61
8.271e-03,-0.69,-0.95
8.273e-03,-0.85,-0.65
8.275e-03,-0.81,-0.93
8.277e-03,-0.83,-0.75
8.279e-03,-0.85,-0.93
8.280e-03,-0.87,-0.77
8.282e-03,-0.79,-0.85
8.284e-03,-0.83,-0.69
8.286e-03,-0.71,-0.79
8.288e-03,-0.75,-0.59
8.290e-03,-0.61,-0.77
8.292e-03,-0.73,-0.59
8.294e-03,-0.61,-0.87
8.296e-03,-0.71,-0.59
8.298e-03,-0.81,-0.87
8.300e-03,-0.77,-0.71
8.302e-03,-0.83,-0.89
8.303e-03,-0.77,-0.75
8.305e-03,-0.89,-0.89
8.307e-03,-0.75,-0.71
8.309e-03,-0.81,-0.83
8.311e-03,-0.67,-0.57
8.313e-03,-0.67,-0.83
8.315e-03,-0.69,-0.59
8.317e-03,-0.81,-0.85
8.319e-03,-0.73,-0.67
8.321e-03,-0.81,-0.91
8.323e-03,-0.81,-0.73
8.325e-03,-0.85,-0.95
8.327e-03,-0.89,-0.77
8.328e-03,-0.81,-0.93
8.330e-03,-0.89,-0.77
8.332e-03,-0.81,-0.89
8.334e-03,-0.79,-0.71
8.336e-03,-0.75,-0.95
8.338e-03,-0.89,-0.73
8.340e-03,-0.87,-0.97
8.342e-03,-0.87,-0.79
8.344e-03,-0.87,-0.99
8.346e-03,-0.91,-0.83
8.348e-03,-0.95,-1.01
8.350e-03,-0.97,-0.89
8.351e-03,-0.97,-1.03
8.353e-03,-0.91,-0.87
8.355e-03,-0.99,-1.03
8.357e-03,-0.85,-0.81
8.359e-03,-0.99,-0.99
8.361e-03,-0.83,-0.69
8.363e-03,-0.75,-0.87
8.365e-03,-0.77,-0.69
8.367e-03,-0.83,-0.93
8.369e-03,-0.83,-0.77
8.371e-03,-0.87,-0.95
8.373e-03,-0.89,-0.81
8.375e-03,-0.85,-0.91
8.376e-03,-0.83,-0.75
8.378e-03,-0.75,-0.81
8.380e-03,-0.75,-0.67
8.382e-03,-0.67,-0.87
8.384e-03,-0.77,-0.63
8.386e-03,-0.79,-0.87
8.388e-03,-0.79,-0.71
8.390e-03,-0.77,-0.99
8.392e-03,-0.95,-0.73
8.394e-03,-0.97,-1.03
8.396e-03,-0.99,-0.77
8.398e-03,-0.85,-0.89
8.399e-03,-0.81,-0.71
8.401e-03,-0.79,-0.85
8.403e-03,-0.75,-0.69
8.405e-03,-0.77,-0.87
8.407e-03,-0.71,-0.67
8.409e-03,-0.85,-0.89
8.411e-03,-0.77,-0.69
8.413e-03,-0.79,-0.85
8.415e-03,-0.77,-0.69
8.417e-03,-0.81,-0.87
8.419e-03,-0.81,-0.71
8.421e-03,-0.81,-0.93
8.423e-03,-0.87,-0.77
8.424e-03,-0.81,-0.87
8.426e-03,-0.77,-0.69
8.428e-03,-0.79,-0.83
8.430e-03,-0.79,-0.67
8.432e-03,-0.69,-0.81
8.434e-03,-0.77,-0.65
8.436e-03,-0.65,-0.75
8.438e-03,-0.69,-0.61
8.440e-03,-0.65,-0.75
8.442e-03,-0.67,-0.57
8.444e-03,-0.69,-0.85
8.446e-03,-0.77,-0.65
8.447e-03,-0.75,-0.81
8.449e-03,-0.65,-0.55
8.451e-03,-0.63,-0.69
8.453e-03,-0.59,-0.55
8.455e-03,-0.63,-0.69
8.457e-03,-0.59,-0.51
8.459e-03,-0.67,-0.75
8.461e-03,-0.65,-0.59
8.463e-03,-0.73,-0.87
8.465e-03,-0.79,-0.67
8.467e-03,-0.73,-0.93
8.469e-03,-0.73,-0.67
8.471e-03,-0.89,-0.95
8.472e-03,-0.87,-0.75
8.474e-03,-0.79,-0.91
8.476e-03,-0.87,-0.75
8.478e-03,-0.79,-0.91
8.480e-03,-0.85,-0.73
8.482e-03,-0.83,-0.91
8.484e-03,-0.87,-0.71
8.486e-03,-0.73,-0.81
8.488e-03,-0.77,-0.67
8.490e-03,-0.75,-0.89
8.492e-03,-0.85,-0.69
8.494e-03,-0.83,-0.89
8.495e-03,-0.81,-0.77
8.497e-03,-0.83,-0.93
8.499e-03,-0.81,-0.77
8.501e-03,-0.91,-0.99
8.503e-03,-0.87,-0.81
8.505e-03,-0.91,-0.91
8.507e-03,-0.79,-0.73
8.509e-03,-0.83,-0.85
8.511e-03,-0.73,-0.67
8.513e-03,-0.73,-0.75
8.515e-03,-0.63,-0.57
8.517e-03,-0.71,-0.83
8.519e-03,-0.77,-0.63
8.520e-03,-0.77,-0.89
8.522e-03,-0.81,-0.73
8.524e-03,-0.81,-0.87
8.526e-03,-0.83,-0.75
8.528e-03,-0.79,-0.87
8.530e-03,-0.81,-0.71
8.532e-03,-0.71,-0.89
8.534e-03,-0.83,-0.69
8.536e-03,-0.81,-0.93
8.538e-03,-0.89,-0.77
8.540e-03,-0.79,-0.85
8.542e-03,-0.77,-0.61
8.544e-03,-0.67,-0.79
8.545e-03,-0.69,-0.63
8.547e-03,-0.75,-0.83
8.549e-03,-0.69,-0.65
8.551e-03,-0.83,-0.85
8.553e-03,-0.73,-0.71
8.555e-03,-0.83,-0.91
8.557e-03,-0.79,-0.75
8.559e-03,-0.89,-0.99
8.561e-03,-0.85,-0.79
8.563e-03,-0.93,-0.97
8.565e-03,-0.81,-0.73
8.567e-03,-0.81,-0.93
8.568e-03,-0.87,-0.77
8.570e-03,-0.79,-0.85
8.572e-03,-0.77,-0.69
8.574e-03,-0.75,-0.83
8.576e-03,-0.81,-0.67
8.578e-03,-0.67,-0.73
8.580e-03,-0.67,-0.59
8.582e-03,-0.63,-0.81
8.584e-03,-0.77,-0.61
8.586e-03,-0.73,-0.87
8.588e-03,-0.85,-0.69
8.590e-03,-0.75,-0.87
8.592e-03,-0.81,-0.71
8.593e-03,-0.81,-0.87
8.595e-03,-0.75,-0.69
8.597e-03,-0.83,-0.95
8.599e-03,-0.85,-0.79
8.601e-03,-0.91,-0.93
8.603e-03,-0.79,-0.75
8.605e-03,-0.85,-0.89
8.607e-03,-0.67,-0.65
8.609e-03,-0.87,-0.95
8.611e-03,-0.83,-0.79
8.613e-03,-0.89,-0.99
8.615e-03,-0.87,-0.73
8.616e-03,-0.73,-0.85
8.618e-03,-0.73,-0.65
8.620e-03,-0.79,-0.89
8.622e-03,-0.83,-0.75
8.624e-03,-0.81,-0.91
8.626e-03,-0.85,-0.77
8.628e-03,-0.81,-0.89
8.630e-03,-0.81,-0.69
8.632e-03,-0.77,-0.93
8.634e-03,-0.87,-0.73
8.636e-03,-0.75,-0.91
8.638e-03,-0.81,-0.73
8.640e-03,-0.87,-1.03
8.641e-03,-0.85,-0.81
8.643e-03,-1.01,-1.05
8.645e-03,-0.97,-0.85
8.647e-03,-0.93,-0.95
8.649e-03,-0.85,-0.79
8.651e-03,-0.89,-0.93
8.653e-03,-0.83,-0.79
8.655e-03,-0.89,-0.97
8.657e-03,-0.87,-0.81
8.659e-03,-0.91,-0.93
8.661e-03,-0.83,-0.71
8.663e-03,-0.77,-0.85
8.664e-03,-0.71,-0.67
8.666e-03,-0.83,-0.93
8.668e-03,-0.89,-0.75
8.670e-03,-0.81,-0.91
8.672e-03,-0.85,-0.75
8.674e-03,-0.77,-0.95
8.676e-03,-0.89,-0.75
8.678e-03,-0.81,-0.93
8.680e-03,-0.83,-0.73
8.682e-03,-0.79,-0.87
8.684e-03,-0.85,-0.75
8.686e-03,-0.79,-0.89
8.688e-03,-0.81,-0.75
8.689e-03,-0.81,-0.87
8.691e-03,-0.75,-0.61
8.693e-03,-0.65,-0.81
8.695e-03,-0.69,-0.59
8.697e-03,-0.71,-0.83
8.699e-03,-0.65,-0.57
8.701e-03,-0.81,-0.83
8.703e-03,-0.71,-0.69
8.705e-03,-0.83,-0.85
8.707e-03,-0.73,-0.69
8.709e-03,-0.75,-0.91
8.711e-03,-0.81,-0.69
8.712e-03,-0.79,-0.85
8.714e-03,-0.75,-0.71
8.716e-03,-0.79,-0.85
8.718e-03,-0.75,-0.65
8.720e-03,-0.73,-0.83
8.722e-03,-0.73,-0.63
8.724e-03,-0.67,-0.77
8.726e-03,-0.71,-0.63
8.728e-03,-0.67,-0.81
8.730e-03,-0.77,-0.63
8.732e-03,-0.75,-0.91
8.734e-03,-0.83,-0.73
8.736e-03,-0.81,-0.87
8.737e-03,-0.75,-0.61
8.739e-03,-0.65,-0.83
8.741e-03,-0.69,-0.59
8.743e-03,-0.81,-0.89
8.745e-03,-0.77,-0.73
8.747e-03,-0.87,-0.89
8.749e-03,-0.77,-0.75
8.751e-03,-0.89,-0.93
8.753e-03,-0.79,-0.73
8.755e-03,-0.79,-0.91
8.757e-03,-0.81,-0.71
8.759e-03,-0.87,-0.89
8.760e-03,-0.71,-0.67
8.762e-03,-0.79,-0.91
8.764e-03,-0.85,-0.71
8.766e-03,-0.77,-0.89
8.768e-03,-0.85,-0.71
8.770e-03,-0.81,-0.91
8.772e-03,-0.85,-0.77
8.774e-03,-0.81,-0.93
8.776e-03,-0.91,-0.75
8.778e-03,-0.75,-0.81
8.780e-03,-0.71,-0.63
8.782e-03,-0.67,-0.75
8.784e-03,-0.69,-0.59
8.785e-03,-0.67,-0.95
8.787e-03,-0.77,-0.63
8.789e-03,-0.91,-0.95
8.791e-03,-0.89,-0.79
8.793e-03,-0.89,-0.95
8.795e-03,-0.87,-0.81
8.797e-03,-0.91,-0.93
8.799e-03,-0.81,-0.73
8.801e-03,-0.81,-0.85
8.803e-03,-0.75,-0.71
8.805e-03,-0.81,-0.85
8.807e-03,-0.69,-0.65
8.808e-03,-0.81,-0.89
8.810e-03,-0.77,-0.71
8.812e-03,-0.85,-0.91
8.814e-03,-0.79,-0.65
8.816e-03,-0.67,-0.79

