Model,DPO2002B
Firmware Version,1.52

Point Format,Y,
Horizontal Units,S,
Horizontal Scale,0.2,
Sample Interval,0.000384025,
Filter Frequency,7e+07,
Record Length,5208,
Gating,0.0% to 100.0%,
Probe Attenuation,10,
Vertical Units,V,
Vertical Offset,0.6,
Vertical Scale,0.5,
Label,,
TIME,CH1,CH1 Peak Detect
-2.0480e-01,-0.96,-1.24
-2.0442e-01,-0.98,-0.72
-2.0403e-01,-1.06,-1.22
-2.0365e-01,-0.98,-0.78
-2.0326e-01,-0.96,-1.26
-2.0288e-01,-0.96,-0.76
-2.0250e-01,-1,-1.26
-2.0211e-01,-1.04,-0.76
-2.0173e-01,-1.14,-1.24
-2.0134e-01,-1.06,-0.76
-2.0096e-01,-1.02,-1.26
-2.0058e-01,-1.04,-0.76
-2.0019e-01,-1.02,-1.26
-1.9981e-01,-0.9,-0.8
-1.9942e-01,-1.02,-1.3
-1.9904e-01,-0.98,-0.76
-1.9866e-01,-1.06,-1.3
-1.9827e-01,-1.16,-0.74
-1.9789e-01,-1.1,-1.24
-1.9750e-01,-0.98,-0.72
-1.9712e-01,-1.02,-1.28
-1.9674e-01,-1.04,-0.74
-1.9635e-01,-0.94,-1.26
-1.9597e-01,-1.06,-0.72
-1.9558e-01,-0.8,-1.26
-1.9520e-01,-0.96,-0.7
-1.9482e-01,-1.04,-1.22
-1.9443e-01,-1.02,-0.76
-1.9405e-01,-1.08,-1.24
-1.9366e-01,-0.94,-0.8
-1.9328e-01,-0.92,-1.28
-1.9290e-01,-1.08,-0.72
-1.9251e-01,-1.02,-1.24
-1.9213e-01,-1.02,-0.76
-1.9174e-01,-1.06,-1.28
-1.9136e-01,-1.08,-0.72
-1.9098e-01,-1.06,-1.28
-1.9059e-01,-1.08,-0.76
-1.9021e-01,-1.1,-1.22
-1.8982e-01,-1.04,-0.74
-1.8944e-01,-0.98,-1.22
-1.8905e-01,-1.02,-0.74
-1.8867e-01,-1.14,-1.24
-1.8829e-01,-1,-0.72
-1.8790e-01,-1.08,-1.26
-1.8752e-01,-0.98,-0.7
-1.8713e-01,-1,-1.26
-1.8675e-01,-1.04,-0.78
-1.8637e-01,-1.08,-1.26
-1.8598e-01,-1.02,-0.76
-1.8560e-01,-0.98,-1.24
-1.8521e-01,-0.94,-0.78
-1.8483e-01,-1.02,-1.24
-1.8445e-01,-1.1,-0.72
-1.8406e-01,-0.92,-1.24
-1.8368e-01,-0.94,-0.78
-1.8329e-01,-0.98,-1.22
-1.8291e-01,-1.16,-0.74
-1.8253e-01,-1.06,-1.22
-1.8214e-01,-0.98,-0.78
-1.8176e-01,-1,-1.3
-1.8137e-01,-1,-0.76
-1.8099e-01,-1.04,-1.22
-1.8061e-01,-1.06,-0.78
-1.8022e-01,-0.96,-1.26
-1.7984e-01,-0.98,-0.76
-1.7945e-01,-0.9,-1.26
-1.7907e-01,-1.06,-0.78
-1.7869e-01,-1.02,-1.3
-1.7830e-01,-1.06,-0.76
-1.7792e-01,-1,-1.22
-1.7753e-01,-0.86,-0.74
-1.7715e-01,-0.94,-1.24
-1.7677e-01,-1.02,-0.72
-1.7638e-01,-1,-1.26
-1.7600e-01,-1.08,-0.7
-1.7561e-01,-0.82,-1.22
-1.7523e-01,-0.98,-0.78
-1.7485e-01,-1.06,-1.3
-1.7446e-01,-1,-0.76
-1.7408e-01,-1.02,-1.22
-1.7369e-01,-0.94,-0.74
-1.7331e-01,-1.04,-1.26
-1.7293e-01,-1.08,-0.76
-1.7254e-01,-0.98,-1.24
-1.7216e-01,-0.88,-0.78
-1.7177e-01,-0.98,-1.24
-1.7139e-01,-1.02,-0.74
-1.7101e-01,-1.04,-1.26
-1.7062e-01,-1.08,-0.78
-1.7024e-01,-1,-1.26
-1.6985e-01,-1.02,-0.8
-1.6947e-01,-1.18,-1.3
-1.6909e-01,-1,-0.76
-1.6870e-01,-1.06,-1.28
-1.6832e-01,-0.96,-0.76
-1.6793e-01,-1.02,-1.24
-1.6755e-01,-0.96,-0.74
-1.6717e-01,-1.1,-1.24
-1.6678e-01,-1.08,-0.74
-1.6640e-01,-0.96,-1.24
-1.6601e-01,-0.98,-0.8
-1.6563e-01,-1.02,-1.22
-1.6525e-01,-0.92,-0.74
-1.6486e-01,-1.04,-1.24
-1.6448e-01,-1.1,-0.72
-1.6409e-01,-1.02,-1.3
-1.6371e-01,-0.96,-0.8
-1.6333e-01,-0.98,-1.28
-1.6294e-01,-1.02,-0.76
-1.6256e-01,-1.06,-1.24
-1.6217e-01,-1.04,-0.78
-1.6179e-01,-0.88,-1.24
-1.6141e-01,-1.04,-0.76
-1.6102e-01,-1.08,-1.24
-1.6064e-01,-1,-0.74
-1.6025e-01,-1.02,-1.24
-1.5987e-01,-1.02,-0.8
-1.5949e-01,-1.06,-1.28
-1.5910e-01,-1.1,-0.68
-1.5872e-01,-1.06,-1.26
-1.5833e-01,-1.04,-0.68
-1.5795e-01,-0.86,-1.28
-1.5756e-01,-0.94,-0.78
-1.5718e-01,-1.08,-1.24
-1.5680e-01,-1,-0.8
-1.5641e-01,-0.98,-1.34
-1.5603e-01,-1,-0.8
-1.5564e-01,-1.08,-1.3
-1.5526e-01,-1.02,-0.76
-1.5488e-01,-1,-1.24
-1.5449e-01,-0.96,-0.78
-1.5411e-01,-1.02,-1.22
-1.5372e-01,-0.94,-0.76
-1.5334e-01,-1.06,-1.22
-1.5296e-01,-0.98,-0.74
-1.5257e-01,-0.98,-1.22
-1.5219e-01,-1,-0.74
-1.5180e-01,-1.02,-1.28
-1.5142e-01,-1.04,-0.78
-1.5104e-01,-1,-1.26
-1.5065e-01,-0.98,-0.76
-1.5027e-01,-1.06,-1.3
-1.4988e-01,-1.1,-0.8
-1.4950e-01,-1.06,-1.22
-1.4912e-01,-1,-0.7
-1.4873e-01,-0.84,-1.3
-1.4835e-01,-1.2,-0.72
-1.4796e-01,-0.98,-1.26
-1.4758e-01,-0.98,-0.78
-1.4720e-01,-1.08,-1.26
-1.4681e-01,-0.98,-0.74
-1.4643e-01,-0.98,-1.26
-1.4604e-01,-1.04,-0.72
-1.4566e-01,-1,-1.24
-1.4528e-01,-1.14,-0.76
-1.4489e-01,-1,-1.26
-1.4451e-01,-1.02,-0.68
-1.4412e-01,-0.9,-1.26
-1.4374e-01,-0.98,-0.78
-1.4336e-01,-1.12,-1.28
-1.4297e-01,-0.94,-0.76
-1.4259e-01,-1.06,-1.24
-1.4220e-01,-1.12,-0.8
-1.4182e-01,-1.04,-1.22
-1.4144e-01,-1.06,-0.76
-1.4105e-01,-1.04,-1.22
-1.4067e-01,-1.02,-0.74
-1.4028e-01,-1,-1.24
-1.3990e-01,-1.1,-0.68
-1.3952e-01,-0.94,-1.26
-1.3913e-01,-0.96,-0.72
-1.3875e-01,-1.02,-1.22
-1.3836e-01,-1.02,-0.72
-1.3798e-01,-0.96,-1.22
-1.3760e-01,-1.1,-0.72
-1.3721e-01,-1.02,-1.26
-1.3683e-01,-1.14,-0.76
-1.3644e-01,-0.92,-1.28
-1.3606e-01,-0.92,-0.78
-1.3568e-01,-1,-1.28
-1.3529e-01,-0.98,-0.8
-1.3491e-01,-1.08,-1.3
-1.3452e-01,-1.02,-0.78
-1.3414e-01,-1.02,-1.24
-1.3376e-01,-1.02,-0.78
-1.3337e-01,-1.14,-1.32
-1.3299e-01,-1.06,-0.72
-1.3260e-01,-0.94,-1.28
-1.3222e-01,-1.02,-0.74
-1.3184e-01,-0.96,-1.28
-1.3145e-01,-1.14,-0.76
-1.3107e-01,-0.96,-1.24
-1.3068e-01,-1,-0.72
-1.3030e-01,-0.92,-1.28
-1.2992e-01,-0.98,-0.76
-1.2953e-01,-1.12,-1.22
-1.2915e-01,-0.92,-0.7
-1.2876e-01,-1.1,-1.22
-1.2838e-01,-1.02,-0.76
-1.2800e-01,-1.02,-1.22
-1.2761e-01,-1.08,-0.74
-1.2723e-01,-1.02,-1.24
-1.2684e-01,-0.96,-0.74
-1.2646e-01,-0.92,-1.26
-1.2607e-01,-1.12,-0.74
-1.2569e-01,-0.96,-1.28
-1.2531e-01,-1.14,-0.74
-1.2492e-01,-0.9,-1.3
-1.2454e-01,-1,-0.74
-1.2415e-01,-0.96,-1.26
-1.2377e-01,-0.96,-0.7
-1.2339e-01,-0.98,-1.26
-1.2300e-01,-1.08,-0.72
-1.2262e-01,-1.02,-1.28
-1.2223e-01,-1.08,-0.76
-1.2185e-01,-1.06,-1.22
-1.2147e-01,-1.04,-0.72
-1.2108e-01,-0.96,-1.24
-1.2070e-01,-1,-0.78
-1.2031e-01,-0.96,-1.22
-1.1993e-01,-0.98,-0.78
-1.1955e-01,-1.06,-1.28
-1.1916e-01,-1.1,-0.72
-1.1878e-01,-0.98,-1.28
-1.1839e-01,-0.82,-0.76
-1.1801e-01,-1.04,-1.26
-1.1763e-01,-1.02,-0.78
-1.1724e-01,-1.02,-1.22
-1.1686e-01,-1.06,-0.76
-1.1647e-01,-0.98,-1.28
-1.1609e-01,-1.04,-0.74
-1.1571e-01,-1,-1.26
-1.1532e-01,-0.84,-0.78
-1.1494e-01,-0.96,-1.24
-1.1455e-01,-0.94,-0.78
-1.1417e-01,-1.06,-1.28
-1.1379e-01,-1.1,-0.7
-1.1340e-01,-1.02,-1.32
-1.1302e-01,-0.88,-0.76
-1.1263e-01,-0.92,-1.24
-1.1225e-01,-1.1,-0.72
-1.1187e-01,-0.96,-1.28
-1.1148e-01,-1,-0.76
-1.1110e-01,-0.9,-1.22
-1.1071e-01,-0.96,-0.78
-1.1033e-01,-1.08,-1.24
-1.0995e-01,-1.1,-0.74
-1.0956e-01,-0.98,-1.24
-1.0918e-01,-1,-0.76
-1.0879e-01,-1.04,-1.22
-1.0841e-01,-1,-0.74
-1.0803e-01,-1.1,-1.26
-1.0764e-01,-1.02,-0.74
-1.0726e-01,-1.02,-1.22
-1.0687e-01,-0.88,-0.78
-1.0649e-01,-1.02,-1.24
-1.0611e-01,-1.06,-0.7
-1.0572e-01,-0.98,-1.26
-1.0534e-01,-0.94,-0.8
-1.0495e-01,-1.02,-1.26
-1.0457e-01,-0.96,-0.76
-1.0419e-01,-1.08,-1.26
-1.0380e-01,-0.96,-0.76
-1.0342e-01,-0.94,-1.28
-1.0303e-01,-0.96,-0.72
-1.0265e-01,-0.98,-1.22
-1.0227e-01,-0.96,-0.72
-1.0188e-01,-1.06,-1.26
-1.0150e-01,-0.96,-0.74
-1.0111e-01,-0.98,-1.28
-1.0073e-01,-1.02,-0.78
-1.0035e-01,-1,-1.28
-9.9961e-02,-1,-0.8
-9.9577e-02,-0.96,-1.22
-9.9193e-02,-0.82,-0.76
-9.8809e-02,-1.08,-1.22
-9.8425e-02,-1,-0.78
-9.8041e-02,-1,-1.24
-9.7657e-02,-1.06,-0.74
-9.7273e-02,-1.08,-1.24
-9.6889e-02,-1.04,-0.74
-9.6505e-02,-1.02,-1.26
-9.6121e-02,-1.06,-0.76
-9.5737e-02,-1.02,-1.22
-9.5353e-02,-0.9,-0.76
-9.4969e-02,-1.02,-1.26
-9.4585e-02,-1.22,-0.76
-9.4201e-02,-0.94,-1.26
-9.3817e-02,-1.02,-0.72
-9.3433e-02,-0.94,-1.24
-9.3049e-02,-1.04,-0.76
-9.2665e-02,-1.12,-1.24
-9.2281e-02,-1.02,-0.78
-9.1897e-02,-1.06,-1.26
-9.1513e-02,-1.02,-0.78
-9.1129e-02,-1.02,-1.24
-9.0745e-02,-0.96,-0.72
-9.0361e-02,-0.98,-1.26
-8.9977e-02,-1.06,-0.74
-8.9593e-02,-0.88,-1.26
-8.9209e-02,-0.94,-0.72
-8.8825e-02,-1.08,-1.24
-8.8441e-02,-0.9,-0.76
-8.8057e-02,-0.86,-1.28
-8.7673e-02,-0.86,-0.78
-8.7288e-02,-1,-1.24
-8.6904e-02,-0.98,-0.74
-8.6520e-02,-1.02,-1.22
-8.6136e-02,-0.92,-0.76
-8.5752e-02,-0.9,-1.3
-8.5368e-02,-1,-0.76
-8.4984e-02,-1,-1.24
-8.4600e-02,-0.98,-0.76
-8.4216e-02,-0.98,-1.3
-8.3832e-02,-1.02,-0.72
-8.3448e-02,-0.96,-1.26
-8.3064e-02,-1,-0.74
-8.2680e-02,-0.88,-1.28
-8.2296e-02,-1.02,-0.68
-8.1912e-02,-0.98,-1.22
-8.1528e-02,-0.98,-0.74
-8.1144e-02,-0.78,-1.28
-8.0760e-02,-1.08,-0.72
-8.0376e-02,-1.02,-1.22
-7.9992e-02,-0.94,-0.72
-7.9608e-02,-0.96,-1.28
-7.9224e-02,-0.94,-0.8
-7.8840e-02,-0.98,-1.28
-7.8456e-02,-0.96,-0.74
-7.8072e-02,-0.86,-1.3
-7.7688e-02,-0.9,-0.7
-7.7304e-02,-0.96,-1.3
-7.6920e-02,-0.96,-0.74
-7.6536e-02,-0.98,-1.22
-7.6152e-02,-0.94,-0.78
-7.5768e-02,-1.08,-1.28
-7.5384e-02,-1.02,-0.74
-7.5000e-02,-1.1,-1.36
-7.4616e-02,-1.14,-0.72
-7.4232e-02,-0.92,-1.26
-7.3848e-02,-0.82,-0.76
-7.3464e-02,-1,-1.24
-7.3080e-02,-0.96,-0.76
-7.2696e-02,-1.04,-1.32
-7.2312e-02,-1,-0.78
-7.1927e-02,-0.98,-1.24
-7.1543e-02,-1.06,-0.78
-7.1159e-02,-0.96,-1.3
-7.0775e-02,-1.02,-0.78
-7.0391e-02,-0.94,-1.24
-7.0007e-02,-0.86,-0.78
-6.9623e-02,-0.94,-1.22
-6.9239e-02,-0.96,-0.74
-6.8855e-02,-1,-1.24
-6.8471e-02,-1.06,-0.8
-6.8087e-02,-1.02,-1.26
-6.7703e-02,-1.02,-0.76
-6.7319e-02,-1.08,-1.24
-6.6935e-02,-0.98,-0.74
-6.6551e-02,-0.94,-1.24
-6.6167e-02,-1.04,-0.72
-6.5783e-02,-0.98,-1.24
-6.5399e-02,-1.04,-0.76
-6.5015e-02,-0.96,-1.3
-6.4631e-02,-1.08,-0.8
-6.4247e-02,-0.92,-1.22
-6.3863e-02,-1.1,-0.74
-6.3479e-02,-1.06,-1.26
-6.3095e-02,-1.1,-0.76
-6.2711e-02,-1,-1.24
-6.2327e-02,-0.98,-0.68
-6.1943e-02,-1.04,-1.26
-6.1559e-02,-0.94,-0.74
-6.1175e-02,-1.14,-1.24
-6.0791e-02,-1.02,-0.78
-6.0407e-02,-1,-1.26
-6.0023e-02,-0.94,-0.74
-5.9639e-02,-0.96,-1.22
-5.9255e-02,-0.98,-0.76
-5.8871e-02,-1.06,-1.28
-5.8487e-02,-1.02,-0.76
-5.8103e-02,-1.1,-1.22
-5.7719e-02,-0.98,-0.76
-5.7335e-02,-1,-1.26
-5.6951e-02,-1.02,-0.78
-5.6567e-02,-0.96,-1.26
-5.6182e-02,-0.98,-0.7
-5.5798e-02,-1.1,-1.24
-5.5414e-02,-1,-0.76
-5.5030e-02,-1.08,-1.3
-5.4646e-02,-0.98,-0.72
-5.4262e-02,-0.96,-1.2
-5.3878e-02,-0.98,-0.74
-5.3494e-02,-0.92,-1.24
-5.3110e-02,-1.14,-0.72
-5.2726e-02,-1.02,-1.28
-5.2342e-02,-0.98,-0.76
-5.1958e-02,-0.88,-1.28
-5.1574e-02,-0.88,-0.76
-5.1190e-02,-0.98,-1.24
-5.0806e-02,-0.9,-0.8
-5.0422e-02,-1,-1.22
-5.0038e-02,-0.94,-0.8
-4.9654e-02,-1,-1.24
-4.9270e-02,-1.06,-0.76
-4.8886e-02,-1.1,-1.28
-4.8502e-02,-1.1,-0.74
-4.8118e-02,-1,-1.3
-4.7734e-02,-0.98,-0.78
-4.7350e-02,-0.98,-1.28
-4.6966e-02,-1.02,-0.72
-4.6582e-02,-0.94,-1.24
-4.6198e-02,-0.96,-0.74
-4.5814e-02,-1.06,-1.26
-4.5430e-02,-1.04,-0.76
-4.5046e-02,-0.94,-1.24
-4.4662e-02,-0.92,-0.74
-4.4278e-02,-1,-1.28
-4.3894e-02,-1.06,-0.76
-4.3510e-02,-1.06,-1.26
-4.3126e-02,-0.96,-0.72
-4.2742e-02,-1,-1.3
-4.2358e-02,-0.94,-0.72
-4.1974e-02,-0.94,-1.24
-4.1590e-02,-1.04,-0.72
-4.1206e-02,-1,-1.28
-4.0822e-02,-0.98,-0.76
-4.0437e-02,-0.88,-1.22
-4.0053e-02,-1.06,-0.76
-3.9669e-02,-0.98,-1.24
-3.9285e-02,-1,-0.8
-3.8901e-02,-0.96,-1.26
-3.8517e-02,-1,-0.76
-3.8133e-02,-0.92,-1.2
-3.7749e-02,-1.02,-0.76
-3.7365e-02,-1.02,-1.22
-3.6981e-02,-0.96,-0.76
-3.6597e-02,-1.04,-1.26
-3.6213e-02,-0.96,-0.8
-3.5829e-02,-1.02,-1.24
-3.5445e-02,-1,-0.7
-3.5061e-02,-1.04,-1.26
-3.4677e-02,-1.04,-0.74
-3.4293e-02,-0.9,-1.3
-3.3909e-02,-1.08,-0.78
-3.3525e-02,-1.06,-1.26
-3.3141e-02,-0.94,-0.74
-3.2757e-02,-0.98,-1.26
-3.2373e-02,-0.98,-0.74
-3.1989e-02,-1.04,-1.24
-3.1605e-02,-1.08,-0.78
-3.1221e-02,-1.02,-1.3
-3.0837e-02,-0.98,-0.76
-3.0453e-02,-1.06,-1.3
-3.0069e-02,-0.92,-0.76
-2.9685e-02,-1,-1.26
-2.9301e-02,-1.1,-0.76
-2.8917e-02,-1.06,-1.24
-2.8533e-02,-1.02,-0.78
-2.8149e-02,-1.06,-1.26
-2.7765e-02,-0.98,-0.74
-2.7381e-02,-0.98,-1.22
-2.6997e-02,-1.02,-0.76
-2.6613e-02,-1.02,-1.22
-2.6229e-02,-1.04,-0.78
-2.5845e-02,-1,-1.26
-2.5461e-02,-0.92,-0.76
-2.5076e-02,-0.96,-1.26
-2.4692e-02,-1,-0.76
-2.4308e-02,-0.98,-1.24
-2.3924e-02,-0.92,-0.74
-2.3540e-02,-1.1,-1.22
-2.3156e-02,-1.04,-0.7
-2.2772e-02,-1.02,-1.26
-2.2388e-02,-1,-0.74
-2.2004e-02,-1.1,-1.22
-2.1620e-02,-0.96,-0.76
-2.1236e-02,-1.08,-1.28
-2.0852e-02,-1,-0.72
-2.0468e-02,-0.96,-1.22
-2.0084e-02,-0.98,-0.78
-1.9700e-02,-1.06,-1.26
-1.9316e-02,-0.94,-0.74
-1.8932e-02,-0.96,-1.28
-1.8548e-02,-0.9,-0.74
-1.8164e-02,-1,-1.24
-1.7780e-02,-1.1,-0.74
-1.7396e-02,-1,-1.26
-1.7012e-02,-0.96,-0.76
-1.6628e-02,-0.98,-1.24
-1.6244e-02,-1.04,-0.74
-1.5860e-02,-1.04,-1.22
-1.5476e-02,-1.02,-0.72
-1.5092e-02,-1.04,-1.22
-1.4708e-02,-1.02,-0.78
-1.4324e-02,-1,-1.2
-1.3940e-02,-0.98,-0.74
-1.3556e-02,-1,-1.24
-1.3172e-02,-0.9,-0.74
-1.2788e-02,-1.02,-1.22
-1.2404e-02,-0.98,-0.76
-1.2020e-02,-0.98,-1.24
-1.1636e-02,-1.02,-0.72
-1.1252e-02,-0.9,-1.22
-1.0868e-02,-0.96,-0.74
-1.0484e-02,-0.98,-1.22
-1.0100e-02,-0.98,-0.74
-9.7155e-03,-1,-1.22
-9.3315e-03,-0.96,-0.76
-8.9475e-03,-0.98,-1.28
-8.5634e-03,-1.12,-0.78
-8.1794e-03,-1.06,-1.28
-7.7954e-03,-0.96,-0.74
-7.4114e-03,-0.94,-1.26
-7.0273e-03,-0.94,-0.74
-6.6433e-03,-1,-1.24
-6.2593e-03,-1.04,-0.76
-5.8753e-03,-1.06,-1.22
-5.4912e-03,-0.92,-0.72
-5.1072e-03,-0.88,-1.22
-4.7232e-03,-1.02,-0.7
-4.3392e-03,-1.06,-1.28
-3.9551e-03,-1.08,-0.78
-3.5711e-03,-1.04,-1.24
-3.1871e-03,-0.94,-0.76
-2.8031e-03,-1,-1.26
-2.4190e-03,-0.98,-0.76
-2.0350e-03,-1.02,-1.26
-1.6510e-03,-0.98,-0.76
-1.2670e-03,-0.96,-1.22
-8.8295e-04,-1.04,-0.74
-4.9892e-04,-1.04,-3.52
-1.1490e-04,1.56,1.56
2.6912e-04,-1.06,-1.16
6.5315e-04,-0.8,-0.64
1.0372e-03,-0.84,-1.2
1.4212e-03,-0.84,-0.6
1.8052e-03,-0.88,-1.2
2.1892e-03,-0.88,-0.68
2.5733e-03,-0.92,-1.16
2.9573e-03,-0.88,-0.72
3.3413e-03,-0.9,-1.2
3.7253e-03,-0.84,-0.64
4.1094e-03,-0.92,-1.18
4.4934e-03,-0.88,-0.7
4.8774e-03,-0.88,-1.22
5.2614e-03,-0.98,-0.74
5.6455e-03,-1.1,-1.28
6.0295e-03,-0.96,-0.7
6.4135e-03,-1.08,-1.24
6.7975e-03,-1.14,-0.8
7.1816e-03,-0.94,-1.22
7.5656e-03,-1.02,-0.74
7.9496e-03,-1.04,-1.2
8.3336e-03,-1.08,-0.7
8.7177e-03,-0.9,-1.26
9.1017e-03,-1.02,-0.76
9.4857e-03,-0.98,-1.24
9.8697e-03,-1,-0.72
1.0254e-02,-0.94,-1.3
1.0638e-02,-0.96,-0.74
1.1022e-02,-0.88,-1.24
1.1406e-02,-1,-0.7
1.1790e-02,-0.94,-1.2
1.2174e-02,-0.86,-0.72
1.2558e-02,-1.08,-1.26
1.2942e-02,-0.92,-0.72
1.3326e-02,-0.92,-1.22
1.3710e-02,-1.08,-0.74
1.4094e-02,-0.94,-1.2
1.4478e-02,-0.78,-0.72
1.4862e-02,-0.98,-1.24
1.5246e-02,-0.98,-0.74
1.5630e-02,-0.98,-1.24
1.6014e-02,-1.1,-0.76
1.6398e-02,-0.94,-1.26
1.6782e-02,-0.98,-0.76
1.7166e-02,-0.96,-1.24
1.7550e-02,-1.16,-0.68
1.7934e-02,-0.96,-1.24
1.8318e-02,-0.86,-0.68
1.8702e-02,-0.88,-1.26
1.9086e-02,-1,-0.78
1.9470e-02,-1.12,-1.22
1.9854e-02,-0.94,-0.7
2.0238e-02,-1.02,-1.2
2.0622e-02,-1.02,-0.74
2.1006e-02,-1.04,-1.2
2.1390e-02,-1.06,-0.74
2.1775e-02,-0.96,-1.22
2.2159e-02,-0.86,-0.78
2.2543e-02,-0.9,-1.26
2.2927e-02,-1.04,-0.74
2.3311e-02,-1.04,-1.2
2.3695e-02,-1.04,-0.76
2.4079e-02,-1,-1.2
2.4463e-02,-0.98,-0.72
2.4847e-02,-0.92,-1.26
2.5231e-02,-0.92,-0.76
2.5615e-02,-1.06,-1.24
2.5999e-02,-0.84,-0.74
2.6383e-02,-1.04,-1.34
2.6767e-02,-0.98,-0.76
2.7151e-02,-0.96,-1.22
2.7535e-02,-0.92,-0.72
2.7919e-02,-0.96,-1.2
2.8303e-02,-1,-0.76
2.8687e-02,-1.1,-1.26
2.9071e-02,-0.98,-0.74
2.9455e-02,-0.94,-1.24
2.9839e-02,-0.96,-0.76
3.0223e-02,-0.88,-1.24
3.0607e-02,-0.94,-0.72
3.0991e-02,-1.04,-1.2
3.1375e-02,-1.02,-0.7
3.1759e-02,-0.92,-1.22
3.2143e-02,-1,-0.72
3.2527e-02,-1.06,-1.2
3.2911e-02,-1.1,-0.72
3.3295e-02,-1.02,-1.22
3.3679e-02,-1,-0.7
3.4063e-02,-0.82,-1.28
3.4447e-02,-1,-0.74
3.4831e-02,-1.02,-1.22
3.5215e-02,-1.02,-0.76
3.5599e-02,-1.1,-1.22
3.5983e-02,-1.06,-0.76
3.6367e-02,-0.96,-1.3
3.6751e-02,-1,-0.72
3.7135e-02,-1.02,-1.2
3.7520e-02,-1,-0.76
3.7904e-02,-0.92,-1.18
3.8288e-02,-0.96,-0.72
3.8672e-02,-0.98,-1.26
3.9056e-02,-0.96,-0.68
3.9440e-02,-0.96,-1.24
3.9824e-02,-0.9,-0.64
4.0208e-02,-0.98,-1.28
4.0592e-02,-0.92,-0.76
4.0976e-02,-1.02,-1.2
4.1360e-02,-0.96,-0.78
4.1744e-02,-1.1,-1.24
4.2128e-02,-0.92,-0.72
4.2512e-02,-1.08,-1.22
4.2896e-02,-1.04,-0.74
4.3280e-02,-0.98,-1.2
4.3664e-02,-0.84,-0.72
4.4048e-02,-0.82,-1.22
4.4432e-02,-0.92,-0.68
4.4816e-02,-1.02,-1.3
4.5200e-02,-1.08,-0.7
4.5584e-02,-0.94,-1.24
4.5968e-02,-1,-0.74
4.6352e-02,-1.04,-1.28
4.6736e-02,-0.98,-0.72
4.7120e-02,-1.1,-1.2
4.7504e-02,-1.02,-0.76
4.7888e-02,-0.88,-1.24
4.8272e-02,-1,-0.7
4.8656e-02,-1.02,-1.28
4.9040e-02,-1.02,-0.74
4.9424e-02,-0.84,-1.28
4.9808e-02,-1.04,-0.78
5.0192e-02,-0.98,-1.26
5.0576e-02,-1.02,-0.74
5.0960e-02,-1.14,-1.22
5.1344e-02,-1,-0.72
5.1728e-02,-0.92,-1.2
5.2112e-02,-0.96,-0.76
5.2496e-02,-1.02,-1.24
5.2880e-02,-0.86,-0.76
5.3265e-02,-0.98,-1.22
5.3649e-02,-0.92,-0.74
5.4033e-02,-0.96,-1.26
5.4417e-02,-0.96,-0.74
5.4801e-02,-0.96,-1.16
5.5185e-02,-0.98,-0.72
5.5569e-02,-0.98,-1.22
5.5953e-02,-0.86,-0.76
5.6337e-02,-1,-1.2
5.6721e-02,-0.96,-0.74
5.7105e-02,-0.98,-1.22
5.7489e-02,-0.88,-0.74
5.7873e-02,-0.94,-1.22
5.8257e-02,-1.02,-0.76
5.8641e-02,-1.04,-1.26
5.9025e-02,-0.98,-0.7
5.9409e-02,-0.94,-1.2
5.9793e-02,-0.88,-0.74
6.0177e-02,-1.04,-1.24
6.0561e-02,-0.94,-0.74
6.0945e-02,-0.92,-1.2
6.1329e-02,-1.02,-0.7
6.1713e-02,-0.96,-1.26
6.2097e-02,-1,-0.7
6.2481e-02,-1.08,-1.24
6.2865e-02,-0.94,-0.74
6.3249e-02,-1,-1.22
6.3633e-02,-0.98,-0.72
6.4017e-02,-1.02,-1.2
6.4401e-02,-0.96,-0.72
6.4785e-02,-1.08,-1.24
6.5169e-02,-0.96,-0.7
6.5553e-02,-0.98,-1.18
6.5937e-02,-0.94,-0.78
6.6321e-02,-0.92,-1.22
6.6705e-02,-0.92,-0.7
6.7089e-02,-0.92,-1.22
6.7473e-02,-0.9,-0.74
6.7857e-02,-0.9,-1.26
6.8241e-02,-1.04,-0.78
6.8625e-02,-0.98,-1.22
6.9010e-02,-0.92,-0.72
6.9394e-02,-0.94,-1.24
6.9778e-02,-0.96,-0.72
7.0162e-02,-1.04,-1.22
7.0546e-02,-1.06,-0.78
7.0930e-02,-1,-1.24
7.1314e-02,-1,-0.74
7.1698e-02,-0.94,-1.24
7.2082e-02,-1.06,-0.74
7.2466e-02,-1.04,-1.24
7.2850e-02,-0.98,-0.74
7.3234e-02,-0.94,-1.22
7.3618e-02,-1.04,-0.66
7.4002e-02,-0.96,-1.3
7.4386e-02,-1.04,-0.7
7.4770e-02,-0.88,-1.22
7.5154e-02,-0.88,-0.78
7.5538e-02,-0.94,-1.22
7.5922e-02,-0.94,-0.7
7.6306e-02,-1.12,-1.22
7.6690e-02,-1.04,-0.76
7.7074e-02,-1,-1.28
7.7458e-02,-1.04,-0.72
7.7842e-02,-1,-1.24
7.8226e-02,-0.98,-0.76
7.8610e-02,-0.92,-1.2
7.8994e-02,-0.96,-0.78
7.9378e-02,-0.98,-1.18
7.9762e-02,-0.98,-0.7
8.0146e-02,-1.06,-1.2
8.0530e-02,-0.92,-0.74
8.0914e-02,-0.96,-1.28
8.1298e-02,-1.04,-0.72
8.1682e-02,-0.94,-1.24
8.2066e-02,-1.08,-0.7
8.2450e-02,-1.02,-1.26
8.2834e-02,-0.88,-0.74
8.3218e-02,-1.06,-1.2
8.3602e-02,-0.96,-0.74
8.3986e-02,-1.02,-1.22
8.4371e-02,-0.94,-0.76
8.4755e-02,-0.98,-1.22
8.5139e-02,-1.02,-0.74
8.5523e-02,-0.98,-1.22
8.5907e-02,-1,-0.74
8.6291e-02,-1,-1.28
8.6675e-02,-0.98,-0.7
8.7059e-02,-0.88,-1.22
8.7443e-02,-0.92,-0.72
8.7827e-02,-1,-1.24
8.8211e-02,-1.04,-0.74
8.8595e-02,-1.06,-1.22
8.8979e-02,-0.82,-0.74
8.9363e-02,-0.98,-1.24
8.9747e-02,-1,-0.76
9.0131e-02,-1.04,-1.3
9.0515e-02,-1.02,-0.7
9.0899e-02,-1.02,-1.26
9.1283e-02,-0.96,-0.7
9.1667e-02,-0.94,-1.24
9.2051e-02,-1.04,-0.72
9.2435e-02,-0.96,-1.24
9.2819e-02,-1.02,-0.76
9.3203e-02,-0.9,-1.22
9.3587e-02,-1.08,-0.7
9.3971e-02,-0.98,-1.22
9.4355e-02,-1.1,-0.74
9.4739e-02,-0.96,-1.3
9.5123e-02,-1.2,-0.74
9.5507e-02,-0.9,-1.26
9.5891e-02,-1,-0.72
9.6275e-02,-1.06,-1.18
9.6659e-02,-0.9,-0.76
9.7043e-02,-0.98,-1.26
9.7427e-02,-0.92,-0.74
9.7811e-02,-0.94,-1.22
9.8195e-02,-1.06,-0.74
9.8579e-02,-0.9,-1.26
9.8963e-02,-0.84,-0.74
9.9347e-02,-0.88,-1.2
9.9731e-02,-0.96,-0.74
1.0012e-01,-1.08,-1.24
1.0050e-01,-0.96,-0.72
1.0088e-01,-0.98,-1.22
1.0127e-01,-1.16,-0.76
1.0165e-01,-1.02,-1.22
1.0204e-01,-0.98,-0.7
1.0242e-01,-0.94,-1.22
1.0280e-01,-0.9,-0.72
1.0319e-01,-0.92,-1.2
1.0357e-01,-0.98,-0.7
1.0396e-01,-0.94,-1.2
1.0434e-01,-0.92,-0.72
1.0472e-01,-0.98,-1.2
1.0511e-01,-1.02,-0.74
1.0549e-01,-1.02,-1.24
1.0588e-01,-1.08,-0.76
1.0626e-01,-0.84,-1.24
1.0664e-01,-0.96,-0.7
1.0703e-01,-1.06,-1.26
1.0741e-01,-0.9,-0.7
1.0780e-01,-1.08,-1.22
1.0818e-01,-0.92,-0.7
1.0856e-01,-0.88,-1.22
1.0895e-01,-0.96,-0.72
1.0933e-01,-1.08,-1.22
1.0972e-01,-0.96,-0.72
1.1010e-01,-1.02,-1.22
1.1048e-01,-1.02,-0.7
1.1087e-01,-0.98,-1.26
1.1125e-01,-0.8,-0.72
1.1164e-01,-1.08,-1.2
1.1202e-01,-1,-0.7
1.1240e-01,-0.86,-1.28
1.1279e-01,-0.94,-0.72
1.1317e-01,-0.92,-1.22
1.1356e-01,-0.98,-0.68
1.1394e-01,-0.98,-1.2
1.1432e-01,-1.02,-0.74
1.1471e-01,-0.96,-1.28
1.1509e-01,-0.9,-0.76
1.1548e-01,-1.04,-1.22
1.1586e-01,-0.98,-0.72
1.1624e-01,-0.96,-1.22
1.1663e-01,-0.98,-0.7
1.1701e-01,-1.04,-1.22
1.1740e-01,-1.1,-0.74
1.1778e-01,-0.98,-1.28
1.1816e-01,-1,-0.74
1.1855e-01,-0.96,-1.24
1.1893e-01,-1.06,-0.7
1.1932e-01,-1.04,-1.22
1.1970e-01,-1.06,-0.76
1.2008e-01,-1.04,-1.24
1.2047e-01,-0.92,-0.7
1.2085e-01,-0.96,-1.22
1.2124e-01,-0.94,-0.7
1.2162e-01,-0.92,-1.22
1.2200e-01,-1,-0.72
1.2239e-01,-0.96,-1.2
1.2277e-01,-1.02,-0.74
1.2316e-01,-1.12,-1.24
1.2354e-01,-1,-0.74
1.2393e-01,-0.76,-1.26
1.2431e-01,-0.98,-0.7
1.2469e-01,-0.86,-1.22
1.2508e-01,-1.04,-0.72
1.2546e-01,-1.04,-1.2
1.2585e-01,-0.86,-0.72
1.2623e-01,-0.96,-1.24
1.2661e-01,-0.96,-0.72
1.2700e-01,-1,-1.22
1.2738e-01,-1.02,-0.72
1.2777e-01,-0.96,-1.22
1.2815e-01,-1,-0.7
1.2853e-01,-0.98,-1.2
1.2892e-01,-1.1,-0.68
1.2930e-01,-0.84,-1.2
1.2969e-01,-0.92,-0.72
1.3007e-01,-0.98,-1.22
1.3045e-01,-0.92,-0.76
1.3084e-01,-0.94,-1.24
1.3122e-01,-1,-0.7
1.3161e-01,-0.94,-1.2
1.3199e-01,-0.94,-0.74
1.3237e-01,-0.94,-1.26
1.3276e-01,-1.04,-0.74
1.3314e-01,-0.88,-1.22
1.3353e-01,-0.98,-0.72
1.3391e-01,-0.92,-1.26
1.3429e-01,-0.98,-0.74
1.3468e-01,-1.12,-1.22
1.3506e-01,-0.94,-0.66
1.3545e-01,-0.96,-1.3
1.3583e-01,-0.92,-0.7
1.3621e-01,-0.96,-1.2
1.3660e-01,-1.14,-0.72
1.3698e-01,-1.02,-1.18
1.3737e-01,-0.94,-0.7
1.3775e-01,-0.82,-1.22
1.3813e-01,-0.88,-0.72
1.3852e-01,-1,-1.2
1.3890e-01,-0.88,-0.76
1.3929e-01,-1.02,-1.24
1.3967e-01,-0.96,-0.74
1.4005e-01,-0.98,-1.26
1.4044e-01,-1.02,-0.78
1.4082e-01,-1,-1.2
1.4121e-01,-1.08,-0.78
1.4159e-01,-0.94,-1.22
1.4197e-01,-0.92,-0.74
1.4236e-01,-1,-1.3
1.4274e-01,-1.04,-0.74
1.4313e-01,-1.06,-1.26
1.4351e-01,-1.02,-0.74
1.4389e-01,-0.9,-1.24
1.4428e-01,-0.94,-0.74
1.4466e-01,-1,-1.24
1.4505e-01,-1.02,-0.7
1.4543e-01,-1,-1.22
1.4581e-01,-1.08,-0.72
1.4620e-01,-0.9,-1.2
1.4658e-01,-1.1,-0.7
1.4697e-01,-1.08,-1.2
1.4735e-01,-0.96,-0.74
1.4773e-01,-1.08,-1.22
1.4812e-01,-0.9,-0.74
1.4850e-01,-1,-1.22
1.4889e-01,-0.98,-0.76
1.4927e-01,-1.2,-1.26
1.4965e-01,-0.86,-0.68
1.5004e-01,-0.92,-1.26
1.5042e-01,-0.96,-0.76
1.5081e-01,-1.04,-1.2
1.5119e-01,-1.04,-0.74
1.5157e-01,-0.92,-1.24
1.5196e-01,-1,-0.74
1.5234e-01,-1.02,-1.2
1.5273e-01,-1,-0.74
1.5311e-01,-0.98,-1.2
1.5349e-01,-0.92,-0.72
1.5388e-01,-1.06,-1.2
1.5426e-01,-0.98,-0.74
1.5465e-01,-1.06,-1.2
1.5503e-01,-0.86,-0.74
1.5542e-01,-0.88,-1.24
1.5580e-01,-1.06,-0.7
1.5618e-01,-0.92,-1.2
1.5657e-01,-0.96,-0.76
1.5695e-01,-1.02,-1.2
1.5734e-01,-0.94,-0.7
1.5772e-01,-0.84,-1.22
1.5810e-01,-0.98,-0.68
1.5849e-01,-1.02,-1.22
1.5887e-01,-1.06,-0.72
1.5926e-01,-1.04,-1.22
1.5964e-01,-1,-0.74
1.6002e-01,-0.9,-1.2
1.6041e-01,-0.94,-0.68
1.6079e-01,-1.08,-1.28
1.6118e-01,-0.98,-0.76
1.6156e-01,-0.86,-1.28
1.6194e-01,-0.96,-0.72
1.6233e-01,-0.96,-1.24
1.6271e-01,-1.1,-0.72
1.6310e-01,-1.02,-1.26
1.6348e-01,-0.92,-0.7
1.6386e-01,-1,-1.28
1.6425e-01,-1.02,-0.72
1.6463e-01,-0.98,-1.24
1.6502e-01,-1,-0.72
1.6540e-01,-0.98,-1.26
1.6578e-01,-0.98,-0.72
1.6617e-01,-1.14,-1.26
1.6655e-01,-1.04,-0.7
1.6694e-01,-1.04,-1.22
1.6732e-01,-0.92,-0.68
1.6770e-01,-0.82,-1.18
1.6809e-01,-0.98,-0.76
1.6847e-01,-1,-1.2
1.6886e-01,-0.98,-0.72
1.6924e-01,-0.96,-1.26
1.6962e-01,-1,-0.76
1.7001e-01,-1.04,-1.24
1.7039e-01,-1.06,-0.7
1.7078e-01,-0.9,-1.22
1.7116e-01,-1.02,-0.76
1.7154e-01,-0.82,-1.2
1.7193e-01,-1,-0.68
1.7231e-01,-1.02,-1.22
1.7270e-01,-0.94,-0.68
1.7308e-01,-0.9,-1.22
1.7346e-01,-0.98,-0.74
1.7385e-01,-1.02,-1.24
1.7423e-01,-0.96,-0.72
1.7462e-01,-1.06,-1.2
1.7500e-01,-0.94,-0.72
1.7538e-01,-0.96,-1.2
1.7577e-01,-0.88,-0.76
1.7615e-01,-0.92,-1.22
1.7654e-01,-1,-0.76
1.7692e-01,-0.96,-1.24
1.7730e-01,-0.98,-0.74
1.7769e-01,-0.96,-1.24
1.7807e-01,-1.08,-0.72
1.7846e-01,-0.96,-1.3
1.7884e-01,-0.94,-0.76
1.7922e-01,-1.06,-1.24
1.7961e-01,-0.88,-0.68
1.7999e-01,-0.98,-1.2
1.8038e-01,-0.98,-0.68
1.8076e-01,-0.98,-1.2
1.8114e-01,-0.92,-0.74
1.8153e-01,-0.86,-1.2
1.8191e-01,-1,-0.72
1.8230e-01,-1.06,-1.24
1.8268e-01,-0.98,-0.72
1.8306e-01,-0.9,-1.24
1.8345e-01,-0.88,-0.72
1.8383e-01,-1.06,-1.2
1.8422e-01,-1.02,-0.72
1.8460e-01,-0.94,-1.2
1.8498e-01,-1.02,-0.76
1.8537e-01,-0.92,-1.26
1.8575e-01,-0.98,-0.7
1.8614e-01,-1.16,-1.22
1.8652e-01,-0.96,-0.64
1.8691e-01,-0.94,-1.26
1.8729e-01,-1.06,-0.74
1.8767e-01,-0.9,-1.24
1.8806e-01,-1.06,-0.76
1.8844e-01,-1.04,-1.24
1.8883e-01,-1.02,-0.74
1.8921e-01,-0.84,-1.18
1.8959e-01,-1.08,-0.72
1.8998e-01,-1.04,-1.22
1.9036e-01,-0.88,-0.74
1.9075e-01,-0.82,-1.22
1.9113e-01,-0.92,-0.78
1.9151e-01,-0.92,-1.22
1.9190e-01,-1.06,-0.74
1.9228e-01,-1.02,-1.22
1.9267e-01,-0.92,-0.72
1.9305e-01,-1,-1.24
1.9343e-01,-0.82,-0.66
1.9382e-01,-0.92,-1.28
1.9420e-01,-0.98,-0.72
1.9459e-01,-0.9,-1.2
1.9497e-01,-0.94,-0.74
1.9535e-01,-0.96,-1.24
1.9574e-01,-0.98,-0.7
1.9612e-01,-0.9,-1.2
1.9651e-01,-0.86,-0.74
1.9689e-01,-0.88,-1.22
1.9727e-01,-0.9,-0.72
1.9766e-01,-1,-1.22
1.9804e-01,-1.1,-0.74
1.9843e-01,-0.9,-1.24
1.9881e-01,-0.9,-0.72
1.9919e-01,-1.02,-1.2
1.9958e-01,-0.96,-0.76
1.9996e-01,-1.22,-1.22
2.0035e-01,-0.96,-0.7
2.0073e-01,-0.88,-1.22
2.0111e-01,-1.06,-0.76
2.0150e-01,-1,-1.24
2.0188e-01,-1.06,-0.66
2.0227e-01,-0.94,-1.2
2.0265e-01,-0.96,-0.74
2.0303e-01,-0.94,-1.2
2.0342e-01,-0.88,-0.74
2.0380e-01,-0.98,-1.28
2.0419e-01,-1,-0.72
2.0457e-01,-0.98,-1.26
2.0495e-01,-0.84,-0.7
2.0534e-01,-0.86,-1.24
2.0572e-01,-1,-0.72
2.0611e-01,-0.96,-1.32
2.0649e-01,-1.04,-0.72
2.0687e-01,-0.94,-1.24
2.0726e-01,-1.04,-0.74
2.0764e-01,-1,-1.22
2.0803e-01,-1.04,-0.74
2.0841e-01,-1.06,-1.22
2.0879e-01,-0.84,-0.7
2.0918e-01,-1.06,-1.24
2.0956e-01,-0.94,-0.76
2.0995e-01,-1.02,-1.26
2.1033e-01,-0.84,-0.76
2.1071e-01,-0.92,-1.22
2.1110e-01,-0.98,-0.72
2.1148e-01,-0.94,-1.24
2.1187e-01,-1.02,-0.74
2.1225e-01,-0.9,-1.2
2.1263e-01,-0.98,-0.74
2.1302e-01,-0.86,-1.28
2.1340e-01,-0.96,-0.72
2.1379e-01,-1.06,-1.2
2.1417e-01,-0.96,-0.72
2.1455e-01,-0.9,-1.2
2.1494e-01,-0.86,-0.76
2.1532e-01,-1.06,-1.24
2.1571e-01,-0.98,-0.7
2.1609e-01,-0.94,-1.24
2.1647e-01,-0.9,-0.7
2.1686e-01,-1.1,-1.24
2.1724e-01,-0.9,-0.7
2.1763e-01,-1,-1.28
2.1801e-01,-0.94,-0.72
2.1840e-01,-0.94,-1.24
2.1878e-01,-0.94,-0.74
2.1916e-01,-1,-1.2
2.1955e-01,-1.04,-0.72
2.1993e-01,-0.96,-1.2
2.2032e-01,-0.92,-0.7
2.2070e-01,-0.96,-1.2
2.2108e-01,-0.9,-0.74
2.2147e-01,-0.92,-1.26
2.2185e-01,-1.04,-0.68
2.2224e-01,-0.94,-1.22
2.2262e-01,-1.1,-0.74
2.2300e-01,-0.92,-1.2
2.2339e-01,-1,-0.74
2.2377e-01,-1.14,-1.24
2.2416e-01,-0.94,-0.72
2.2454e-01,-0.9,-1.24
2.2492e-01,-1.02,-0.72
2.2531e-01,-0.88,-1.24
2.2569e-01,-1.06,-0.68
2.2608e-01,-0.92,-1.22
2.2646e-01,-0.9,-0.76
2.2684e-01,-1.06,-1.2
2.2723e-01,-1.06,-0.74
2.2761e-01,-0.88,-1.2
2.2800e-01,-0.84,-0.7
2.2838e-01,-0.98,-1.2
2.2876e-01,-1,-0.76
2.2915e-01,-1,-1.22
2.2953e-01,-1.08,-0.68
2.2992e-01,-0.92,-1.28
2.3030e-01,-1.06,-0.7
2.3068e-01,-0.94,-1.28
2.3107e-01,-0.98,-0.72
2.3145e-01,-1.18,-1.28
2.3184e-01,-0.98,-0.72
2.3222e-01,-0.88,-1.22
2.3260e-01,-0.92,-0.76
2.3299e-01,-0.94,-1.22
2.3337e-01,-1.08,-0.76
2.3376e-01,-1.02,-1.2
2.3414e-01,-0.92,-0.76
2.3452e-01,-0.9,-1.24
2.3491e-01,-1.1,-0.74
2.3529e-01,-0.92,-1.24
2.3568e-01,-0.84,-0.7
2.3606e-01,-0.98,-1.26
2.3644e-01,-1.04,-0.74
2.3683e-01,-1.02,-1.2
2.3721e-01,-1,-0.74
2.3760e-01,-1.08,-1.22
2.3798e-01,-0.94,-0.72
2.3836e-01,-0.9,-1.2
2.3875e-01,-0.98,-0.74
2.3913e-01,-0.88,-1.2
2.3952e-01,-1,-0.68
2.3990e-01,-0.94,-1.24
2.4028e-01,-1.02,-0.76
2.4067e-01,-1.04,-1.22
2.4105e-01,-1.02,-0.76
2.4144e-01,-1.06,-1.22
2.4182e-01,-0.86,-0.74
2.4220e-01,-0.94,-1.24
2.4259e-01,-1.06,-0.74
2.4297e-01,-1.06,-1.26
2.4336e-01,-0.92,-0.72
2.4374e-01,-0.96,-1.2
2.4412e-01,-0.92,-0.7
2.4451e-01,-1.02,-1.22
2.4489e-01,-0.86,-0.7
2.4528e-01,-1.04,-1.2
2.4566e-01,-0.98,-0.76
2.4604e-01,-0.94,-1.22
2.4643e-01,-0.98,-0.76
2.4681e-01,-0.96,-1.22
2.4720e-01,-0.98,-0.72
2.4758e-01,-0.96,-1.24
2.4796e-01,-0.88,-0.74
2.4835e-01,-1.06,-1.24
2.4873e-01,-1.02,-0.74
2.4912e-01,-1.02,-1.22
2.4950e-01,-0.98,-0.74
2.4989e-01,-0.98,-1.22
2.5027e-01,-1.08,-0.7
2.5065e-01,-1.1,-1.3
2.5104e-01,-1.02,-0.74
2.5142e-01,-1.04,-1.2
2.5181e-01,-0.96,-0.72
2.5219e-01,-0.9,-1.24
2.5257e-01,-1,-0.76
2.5296e-01,-1,-1.2
2.5334e-01,-1,-0.76
2.5373e-01,-0.92,-1.22
2.5411e-01,-0.92,-0.72
2.5449e-01,-1.08,-1.2
2.5488e-01,-1.08,-0.7
2.5526e-01,-1.06,-1.24
2.5565e-01,-1.06,-0.68
2.5603e-01,-0.9,-1.22
2.5641e-01,-0.98,-0.7
2.5680e-01,-0.84,-1.2
2.5718e-01,-1.04,-0.76
2.5757e-01,-0.9,-1.2
2.5795e-01,-0.88,-0.78
2.5833e-01,-0.96,-1.22
2.5872e-01,-1,-0.72
2.5910e-01,-0.98,-1.2
2.5949e-01,-0.84,-0.72
2.5987e-01,-0.9,-1.22
2.6025e-01,-0.88,-0.74
2.6064e-01,-1,-1.2
2.6102e-01,-0.98,-0.7
2.6141e-01,-0.88,-1.22
2.6179e-01,-1.14,-0.76
2.6217e-01,-1.14,-1.3
2.6256e-01,-0.94,-0.72
2.6294e-01,-1.02,-1.2
2.6333e-01,-0.86,-0.72
2.6371e-01,-1.04,-1.32
2.6409e-01,-0.98,-0.76
2.6448e-01,-1.06,-1.24
2.6486e-01,-0.86,-0.72
2.6525e-01,-1.02,-1.22
2.6563e-01,-0.96,-0.76
2.6601e-01,-0.94,-1.22
2.6640e-01,-1.08,-0.76
2.6678e-01,-1.04,-1.2
2.6717e-01,-0.96,-0.76
2.6755e-01,-0.9,-1.22
2.6793e-01,-0.98,-0.76
2.6832e-01,-0.96,-1.3
2.6870e-01,-1.04,-0.68
2.6909e-01,-1.02,-1.24
2.6947e-01,-0.94,-0.74
2.6985e-01,-0.94,-1.2
2.7024e-01,-0.96,-0.68
2.7062e-01,-0.84,-1.22
2.7101e-01,-1,-0.72
2.7139e-01,-0.94,-1.24
2.7177e-01,-0.96,-0.72
2.7216e-01,-0.8,-1.2
2.7254e-01,-0.96,-0.7
2.7293e-01,-1.08,-1.2
2.7331e-01,-0.96,-0.7
2.7369e-01,-1.1,-1.22
2.7408e-01,-0.94,-0.72
2.7446e-01,-0.86,-1.18
2.7485e-01,-0.86,-0.66
2.7523e-01,-0.86,-1.3
2.7561e-01,-0.96,-0.7
2.7600e-01,-1.02,-1.22
2.7638e-01,-0.92,-0.72
2.7677e-01,-0.96,-1.22
2.7715e-01,-0.8,-0.76
2.7753e-01,-0.98,-1.18
2.7792e-01,-1.02,-0.7
2.7830e-01,-1.02,-1.24
2.7869e-01,-0.92,-0.76
2.7907e-01,-0.9,-1.2
2.7945e-01,-1.02,-0.68
2.7984e-01,-0.82,-1.2
2.8022e-01,-0.96,-0.7
2.8061e-01,-1.08,-1.2
2.8099e-01,-1.04,-0.76
2.8138e-01,-0.82,-1.2
2.8176e-01,-1.06,-0.68
2.8214e-01,-1.04,-1.26
2.8253e-01,-0.98,-0.74
2.8291e-01,-1.06,-1.22
2.8330e-01,-0.88,-0.72
2.8368e-01,-1.02,-1.24
2.8406e-01,-0.96,-0.68
2.8445e-01,-1,-1.22
2.8483e-01,-1.04,-0.72
2.8522e-01,-0.98,-1.22
2.8560e-01,-0.98,-0.64
2.8598e-01,-1.06,-1.2
2.8637e-01,-0.86,-0.74
2.8675e-01,-0.98,-1.18
2.8714e-01,-0.96,-0.74
2.8752e-01,-1,-1.22
2.8790e-01,-1.1,-0.7
2.8829e-01,-0.92,-1.22
2.8867e-01,-0.88,-0.72
2.8906e-01,-0.88,-1.18
2.8944e-01,-0.98,-0.66
2.8982e-01,-0.98,-1.22
2.9021e-01,-1.04,-0.72
2.9059e-01,-1.06,-1.2
2.9098e-01,-1.02,-0.72
2.9136e-01,-0.98,-1.22
2.9174e-01,-1.02,-0.76
2.9213e-01,-1,-1.22
2.9251e-01,-1.16,-0.74
2.9290e-01,-0.94,-1.22
2.9328e-01,-0.96,-0.76
2.9366e-01,-1.12,-1.26
2.9405e-01,-0.9,-0.7
2.9443e-01,-1,-1.24
2.9482e-01,-0.94,-0.76
2.9520e-01,-0.9,-1.26
2.9558e-01,-1.02,-0.76
2.9597e-01,-1.22,-1.22
2.9635e-01,-0.98,-0.72
2.9674e-01,-0.86,-1.26
2.9712e-01,-0.92,-0.68
2.9750e-01,-0.9,-1.28
2.9789e-01,-1.06,-0.76
2.9827e-01,-1.06,-1.2
2.9866e-01,-0.9,-0.74
2.9904e-01,-1.02,-1.22
2.9942e-01,-1,-0.72
2.9981e-01,-1.04,-1.28
3.0019e-01,-1,-0.72
3.0058e-01,-0.94,-1.22
3.0096e-01,-0.82,-0.72
3.0134e-01,-0.96,-1.22
3.0173e-01,-0.98,-0.7
3.0211e-01,-0.98,-1.28
3.0250e-01,-0.9,-0.72
3.0288e-01,-0.96,-1.22
3.0326e-01,-0.96,-0.7
3.0365e-01,-1.06,-1.2
3.0403e-01,-0.94,-0.72
3.0442e-01,-0.88,-1.24
3.0480e-01,-1.1,-0.74
3.0518e-01,-0.98,-1.18
3.0557e-01,-1.02,-0.74
3.0595e-01,-1.04,-1.22
3.0634e-01,-1,-0.66
3.0672e-01,-0.92,-1.2
3.0710e-01,-1.04,-0.72
3.0749e-01,-1.06,-1.2
3.0787e-01,-1,-0.72
3.0826e-01,-0.98,-1.22
3.0864e-01,-0.96,-0.74
3.0902e-01,-0.86,-1.24
3.0941e-01,-1.04,-0.76
3.0979e-01,-1.1,-1.2
3.1018e-01,-1.02,-0.7
3.1056e-01,-1,-1.22
3.1095e-01,-0.92,-0.72
3.1133e-01,-1.08,-1.22
3.1171e-01,-0.9,-0.76
3.1210e-01,-0.98,-1.28
3.1248e-01,-0.94,-0.76
3.1287e-01,-0.92,-1.2
3.1325e-01,-0.96,-0.7
3.1363e-01,-0.9,-1.26
3.1402e-01,-0.98,-0.76
3.1440e-01,-0.98,-1.2
3.1479e-01,-1.04,-0.68
3.1517e-01,-0.86,-1.18
3.1555e-01,-0.98,-0.76
3.1594e-01,-1.04,-1.24
3.1632e-01,-0.98,-0.68
3.1671e-01,-0.78,-1.22
3.1709e-01,-0.98,-0.7
3.1747e-01,-1.06,-1.22
3.1786e-01,-1.04,-0.74
3.1824e-01,-1,-1.24
3.1863e-01,-0.82,-0.7
3.1901e-01,-1.04,-1.24
3.1939e-01,-0.92,-0.76
3.1978e-01,-1.04,-1.24
3.2016e-01,-0.94,-0.74
3.2055e-01,-0.82,-1.2
3.2093e-01,-1.02,-0.72
3.2131e-01,-1,-1.2
3.2170e-01,-0.96,-0.78
3.2208e-01,-1,-1.22
3.2247e-01,-0.96,-0.74
3.2285e-01,-1,-1.22
3.2323e-01,-0.94,-0.74
3.2362e-01,-1.06,-1.22
3.2400e-01,-0.92,-0.72
3.2439e-01,-0.92,-1.26
3.2477e-01,-0.96,-0.74
3.2515e-01,-0.96,-1.26
3.2554e-01,-1.06,-0.74
3.2592e-01,-1,-1.24
3.2631e-01,-1.02,-0.74
3.2669e-01,-0.86,-1.22
3.2707e-01,-1.1,-0.76
3.2746e-01,-1.08,-1.2
3.2784e-01,-0.98,-0.72
3.2823e-01,-0.88,-1.24
3.2861e-01,-0.96,-0.74
3.2899e-01,-1.06,-1.24
3.2938e-01,-0.92,-0.72
3.2976e-01,-0.98,-1.2
3.3015e-01,-0.96,-0.68
3.3053e-01,-0.92,-1.26
3.3091e-01,-1,-0.74
3.3130e-01,-0.96,-1.26
3.3168e-01,-1.04,-0.72
3.3207e-01,-0.92,-1.24
3.3245e-01,-0.98,-0.66
3.3283e-01,-0.88,-1.22
3.3322e-01,-1.08,-0.76
3.3360e-01,-0.98,-1.26
3.3399e-01,-0.94,-0.76
3.3437e-01,-1.04,-1.2
3.3475e-01,-0.82,-0.74
3.3514e-01,-1.04,-1.2
3.3552e-01,-0.96,-0.7
3.3591e-01,-0.94,-1.18
3.3629e-01,-1.06,-0.7
3.3667e-01,-0.9,-1.22
3.3706e-01,-0.96,-0.74
3.3744e-01,-1,-1.18
3.3783e-01,-0.96,-0.76
3.3821e-01,-0.92,-1.24
3.3859e-01,-0.96,-0.7
3.3898e-01,-1.02,-1.24
3.3936e-01,-0.94,-0.74
3.3975e-01,-1.02,-1.24
3.4013e-01,-0.96,-0.74
3.4051e-01,-0.96,-1.2
3.4090e-01,-1.02,-0.66
3.4128e-01,-1.04,-1.24
3.4167e-01,-0.9,-0.7
3.4205e-01,-0.88,-1.24
3.4244e-01,-0.98,-0.72
3.4282e-01,-0.94,-1.22
3.4320e-01,-1.06,-0.74
3.4359e-01,-1,-1.22
3.4397e-01,-0.9,-0.76
3.4436e-01,-1.02,-1.26
3.4474e-01,-1.02,-0.72
3.4512e-01,-0.96,-1.2
3.4551e-01,-0.92,-0.72
3.4589e-01,-0.98,-1.24
3.4628e-01,-0.96,-0.72
3.4666e-01,-0.92,-1.22
3.4704e-01,-1.04,-0.74
3.4743e-01,-0.98,-1.22
3.4781e-01,-0.82,-0.7
3.4820e-01,-0.98,-1.22
3.4858e-01,-1,-0.72
3.4896e-01,-0.88,-1.24
3.4935e-01,-0.96,-0.76
3.4973e-01,-0.88,-1.22
3.5012e-01,-0.94,-0.7
3.5050e-01,-1.12,-1.22
3.5088e-01,-1.02,-0.72
3.5127e-01,-0.98,-1.2
3.5165e-01,-1,-0.7
3.5204e-01,-0.9,-1.2
3.5242e-01,-0.88,-0.7
3.5280e-01,-0.98,-1.24
3.5319e-01,-1.02,-0.72
3.5357e-01,-0.88,-1.2
3.5396e-01,-0.96,-0.74
3.5434e-01,-0.98,-1.22
3.5472e-01,-1.08,-0.7
3.5511e-01,-1.04,-1.22
3.5549e-01,-0.9,-0.72
3.5588e-01,-0.9,-1.26
3.5626e-01,-0.9,-0.72
3.5664e-01,-1.08,-1.22
3.5703e-01,-0.94,-0.72
3.5741e-01,-0.94,-1.2
3.5780e-01,-1,-0.7
3.5818e-01,-1,-1.24
3.5856e-01,-1.12,-0.72
3.5895e-01,-0.92,-1.2
3.5933e-01,-0.96,-0.72
3.5972e-01,-0.84,-1.2
3.6010e-01,-0.92,-0.7
3.6048e-01,-0.94,-1.24
3.6087e-01,-1.08,-0.74
3.6125e-01,-1.06,-1.2
3.6164e-01,-0.96,-0.74
3.6202e-01,-0.98,-1.2
3.6240e-01,-0.98,-0.68
3.6279e-01,-1,-1.24
3.6317e-01,-0.96,-0.74
3.6356e-01,-1.1,-1.28
3.6394e-01,-1.02,-0.72
3.6432e-01,-0.88,-1.2
3.6471e-01,-1.1,-0.74
3.6509e-01,-1,-1.24
3.6548e-01,-0.96,-0.72
3.6586e-01,-0.94,-1.22
3.6624e-01,-1.02,-0.74
3.6663e-01,-0.98,-1.18
3.6701e-01,-1,-0.7
3.6740e-01,-0.98,-1.22
3.6778e-01,-0.94,-0.72
3.6816e-01,-1.14,-1.24
3.6855e-01,-0.98,-0.68
3.6893e-01,-0.98,-1.22
3.6932e-01,-0.86,-0.72
3.6970e-01,-0.94,-1.22
3.7008e-01,-0.88,-0.74
3.7047e-01,-0.92,-1.2
3.7085e-01,-0.94,-0.74
3.7124e-01,-0.98,-1.2
3.7162e-01,-0.98,-0.76
3.7200e-01,-0.94,-1.24
3.7239e-01,-1.06,-0.72
3.7277e-01,-1.1,-1.2
3.7316e-01,-1.02,-0.72
3.7354e-01,-0.96,-1.22
3.7393e-01,-1.04,-0.74
3.7431e-01,-1.06,-1.24
3.7469e-01,-0.96,-0.7
3.7508e-01,-0.86,-1.22
3.7546e-01,-0.98,-0.72
3.7585e-01,-0.92,-1.18
3.7623e-01,-0.9,-0.74
3.7661e-01,-1.06,-1.22
3.7700e-01,-0.96,-0.76
3.7738e-01,-0.94,-1.22
3.7777e-01,-1.04,-0.7
3.7815e-01,-0.96,-1.2
3.7853e-01,-0.94,-0.74
3.7892e-01,-0.92,-1.22
3.7930e-01,-0.98,-0.68
3.7969e-01,-0.86,-1.2
3.8007e-01,-1.08,-0.78
3.8045e-01,-1,-1.22
3.8084e-01,-1,-0.72
3.8122e-01,-0.92,-1.18
3.8161e-01,-1,-0.7
3.8199e-01,-0.96,-1.2
3.8237e-01,-1.02,-0.72
3.8276e-01,-0.94,-1.22
3.8314e-01,-1.02,-0.76
3.8353e-01,-0.84,-1.24
3.8391e-01,-1.02,-0.72
3.8429e-01,-0.92,-1.22
3.8468e-01,-0.92,-0.68
3.8506e-01,-0.84,-1.2
3.8545e-01,-0.88,-0.72
3.8583e-01,-0.9,-1.26
3.8621e-01,-1.02,-0.68
3.8660e-01,-0.98,-1.22
3.8698e-01,-0.96,-0.72
3.8737e-01,-0.96,-1.2
3.8775e-01,-0.92,-0.72
3.8813e-01,-1.04,-1.26
3.8852e-01,-0.92,-0.76
3.8890e-01,-0.9,-1.18
3.8929e-01,-0.94,-0.76
3.8967e-01,-0.96,-1.2
3.9005e-01,-0.9,-0.74
3.9044e-01,-1.08,-1.18
3.9082e-01,-0.96,-0.76
3.9121e-01,-0.98,-1.24
3.9159e-01,-1,-0.7
3.9197e-01,-1.04,-1.18
3.9236e-01,-0.92,-0.76
3.9274e-01,-0.94,-1.2
3.9313e-01,-1.02,-0.74
3.9351e-01,-1.04,-1.18
3.9389e-01,-1.02,-0.74
3.9428e-01,-1.06,-1.24
3.9466e-01,-1.04,-0.72
3.9505e-01,-0.88,-1.16
3.9543e-01,-0.98,-0.76
3.9581e-01,-0.98,-1.18
3.9620e-01,-1.04,-0.7
3.9658e-01,-1,-1.24
3.9697e-01,-1.02,-0.76
3.9735e-01,-0.98,-1.3
3.9773e-01,-0.96,-0.76
3.9812e-01,-0.92,-1.24
3.9850e-01,-1.02,-0.72
3.9889e-01,-0.92,-1.22
3.9927e-01,-0.88,-0.7
3.9965e-01,-1.14,-1.2
4.0004e-01,-1,-0.76
4.0042e-01,-1.02,-1.24
4.0081e-01,-0.86,-0.74
4.0119e-01,-0.94,-1.24
4.0157e-01,-0.96,-0.74
4.0196e-01,-1.18,-1.24
4.0234e-01,-1.02,-0.72
4.0273e-01,-0.98,-1.24
4.0311e-01,-0.9,-0.74
4.0349e-01,-0.82,-1.2
4.0388e-01,-1.04,-0.74
4.0426e-01,-0.92,-1.26
4.0465e-01,-0.88,-0.74
4.0503e-01,-0.94,-1.26
4.0542e-01,-1.08,-0.7
4.0580e-01,-1.06,-1.2
4.0618e-01,-0.94,-0.76
4.0657e-01,-0.94,-1.18
4.0695e-01,-0.86,-0.66
4.0734e-01,-0.96,-1.22
4.0772e-01,-0.98,-0.7
4.0810e-01,-0.96,-1.2
4.0849e-01,-0.96,-0.7
4.0887e-01,-1,-1.22
4.0926e-01,-0.96,-0.72
4.0964e-01,-0.92,-1.2
4.1002e-01,-1.06,-0.7
4.1041e-01,-0.94,-1.26
4.1079e-01,-0.88,-0.72
4.1118e-01,-0.92,-1.34
4.1156e-01,-1.02,-0.72
4.1194e-01,-1,-1.2
4.1233e-01,-1.02,-0.7
4.1271e-01,-0.98,-1.26
4.1310e-01,-1.08,-0.72
4.1348e-01,-0.98,-1.24
4.1386e-01,-0.94,-0.72
4.1425e-01,-0.92,-1.22
4.1463e-01,-1.04,-0.72
4.1502e-01,-1,-1.2
4.1540e-01,-1.02,-0.72
4.1578e-01,-0.96,-1.24
4.1617e-01,-1.04,-0.66
4.1655e-01,-0.96,-1.24
4.1694e-01,-0.92,-0.7
4.1732e-01,-1.02,-1.2
4.1770e-01,-1.08,-0.74
4.1809e-01,-1.02,-1.2
4.1847e-01,-0.96,-0.74
4.1886e-01,-0.96,-1.18
4.1924e-01,-1,-0.74
4.1962e-01,-0.98,-1.22
4.2001e-01,-1.06,-0.74
4.2039e-01,-0.88,-1.22
4.2078e-01,-0.9,-0.68
4.2116e-01,-0.96,-1.2
4.2154e-01,-0.9,-0.76
4.2193e-01,-0.92,-1.22
4.2231e-01,-0.94,-0.7
4.2270e-01,-1.06,-1.24
4.2308e-01,-0.92,-0.74
4.2346e-01,-1.06,-1.18
4.2385e-01,-1.04,-0.72
4.2423e-01,-0.92,-1.24
4.2462e-01,-0.92,-0.72
4.2500e-01,-0.96,-1.24
4.2538e-01,-1.08,-0.72
4.2577e-01,-1.02,-1.32
4.2615e-01,-0.96,-0.74
4.2654e-01,-0.9,-1.22
4.2692e-01,-0.96,-0.78
4.2730e-01,-0.96,-1.24
4.2769e-01,-0.94,-0.7
4.2807e-01,-0.92,-1.22
4.2846e-01,-0.96,-0.74
4.2884e-01,-0.92,-1.22
4.2922e-01,-0.96,-0.7
4.2961e-01,-0.92,-1.16
4.2999e-01,-0.94,-0.72
4.3038e-01,-0.92,-1.2
4.3076e-01,-0.94,-0.72
4.3114e-01,-1.04,-1.24
4.3153e-01,-1.06,-0.72
4.3191e-01,-0.98,-1.22
4.3230e-01,-0.98,-0.68
4.3268e-01,-1.08,-1.26
4.3306e-01,-1.02,-0.68
4.3345e-01,-1.1,-1.28
4.3383e-01,-0.9,-0.74
4.3422e-01,-0.86,-1.22
4.3460e-01,-1,-0.7
4.3498e-01,-1.08,-1.28
4.3537e-01,-1.04,-0.74
4.3575e-01,-1.02,-1.2
4.3614e-01,-0.94,-0.74
4.3652e-01,-0.86,-1.22
4.3691e-01,-0.96,-0.7
4.3729e-01,-1,-1.22
4.3767e-01,-1.08,-0.72
4.3806e-01,-1.08,-1.22
4.3844e-01,-0.92,-0.66
4.3883e-01,-1,-1.22
4.3921e-01,-0.9,-0.7
4.3959e-01,-1.04,-1.2
4.3998e-01,-0.94,-0.72
4.4036e-01,-0.92,-1.22
4.4075e-01,-1.02,-0.7
4.4113e-01,-1.08,-1.2
4.4151e-01,-1.08,-0.74
4.4190e-01,-0.96,-1.26
4.4228e-01,-0.94,-0.74
4.4267e-01,-0.94,-1.22
4.4305e-01,-1.04,-0.7
4.4343e-01,-0.88,-1.26
4.4382e-01,-1,-0.68
4.4420e-01,-0.92,-1.24
4.4459e-01,-1.1,-0.74
4.4497e-01,-0.9,-1.2
4.4535e-01,-1.02,-0.7
4.4574e-01,-0.9,-1.18
4.4612e-01,-0.98,-0.76
4.4651e-01,-0.98,-1.22
4.4689e-01,-1,-0.72
4.4727e-01,-1.1,-1.18
4.4766e-01,-0.92,-0.72
4.4804e-01,-0.88,-1.22
4.4843e-01,-1,-0.74
4.4881e-01,-0.98,-1.24
4.4919e-01,-1.08,-0.74
4.4958e-01,-0.92,-1.22
4.4996e-01,-0.94,-0.72
4.5035e-01,-0.98,-1.24
4.5073e-01,-1.04,-0.76
4.5111e-01,-0.92,-1.22
4.5150e-01,-0.88,-0.68
4.5188e-01,-1.04,-1.22
4.5227e-01,-1.1,-0.72
4.5265e-01,-0.96,-1.2
4.5303e-01,-1.08,-0.74
4.5342e-01,-0.96,-1.28
4.5380e-01,-0.92,-0.7
4.5419e-01,-0.94,-1.18
4.5457e-01,-0.94,-0.7
4.5495e-01,-0.9,-1.2
4.5534e-01,-1.06,-0.72
4.5572e-01,-0.9,-1.2
4.5611e-01,-0.94,-0.74
4.5649e-01,-0.98,-1.28
4.5687e-01,-0.96,-0.76
4.5726e-01,-0.94,-1.18
4.5764e-01,-0.88,-0.74
4.5803e-01,-0.84,-1.22
4.5841e-01,-1.04,-0.72
4.5879e-01,-0.92,-1.2
4.5918e-01,-0.96,-0.72
4.5956e-01,-0.88,-1.2
4.5995e-01,-0.94,-0.76
4.6033e-01,-0.92,-1.2
4.6071e-01,-1.16,-0.74
4.6110e-01,-1.06,-1.2
4.6148e-01,-0.94,-0.72
4.6187e-01,-0.84,-1.26
4.6225e-01,-0.94,-0.76
4.6263e-01,-0.88,-1.2
4.6302e-01,-1.06,-0.66
4.6340e-01,-0.9,-1.2
4.6379e-01,-0.92,-0.7
4.6417e-01,-0.98,-1.22
4.6455e-01,-0.98,-0.7
4.6494e-01,-1.02,-1.26
4.6532e-01,-1.02,-0.7
4.6571e-01,-0.9,-1.18
4.6609e-01,-1.02,-0.7
4.6647e-01,-1.02,-1.2
4.6686e-01,-0.94,-0.74
4.6724e-01,-0.98,-1.22
4.6763e-01,-0.98,-0.72
4.6801e-01,-0.86,-1.2
4.6840e-01,-0.96,-0.7
4.6878e-01,-0.98,-1.2
4.6916e-01,-0.96,-0.74
4.6955e-01,-1,-1.26
4.6993e-01,-1.04,-0.74
4.7032e-01,-0.98,-1.2
4.7070e-01,-0.96,-0.7
4.7108e-01,-0.92,-1.18
4.7147e-01,-0.88,-0.72
4.7185e-01,-1,-1.22
4.7224e-01,-0.88,-0.72
4.7262e-01,-1.16,-1.2
4.7300e-01,-1.04,-0.72
4.7339e-01,-1.08,-1.2
4.7377e-01,-1.06,-0.7
4.7416e-01,-1,-1.22
4.7454e-01,-0.9,-0.74
4.7492e-01,-0.98,-1.26
4.7531e-01,-1.04,-0.78
4.7569e-01,-0.98,-1.24
4.7608e-01,-0.92,-0.72
4.7646e-01,-0.98,-1.22
4.7684e-01,-0.98,-0.72
4.7723e-01,-0.96,-1.22
4.7761e-01,-1,-0.7
4.7800e-01,-1.04,-1.22
4.7838e-01,-0.96,-0.7
4.7876e-01,-0.96,-1.2
4.7915e-01,-0.84,-0.74
4.7953e-01,-0.94,-1.2
4.7992e-01,-0.94,-0.72
4.8030e-01,-1.06,-1.22
4.8068e-01,-0.98,-0.72
4.8107e-01,-0.84,-1.22
4.8145e-01,-0.92,-0.78
4.8184e-01,-0.94,-1.2
4.8222e-01,-1,-0.72
4.8260e-01,-1,-1.2
4.8299e-01,-1,-0.74
4.8337e-01,-0.96,-1.22
4.8376e-01,-1.04,-0.74
4.8414e-01,-1.06,-1.22
4.8452e-01,-0.98,-0.74
4.8491e-01,-1.02,-1.22
4.8529e-01,-1,-0.68
4.8568e-01,-0.96,-1.22
4.8606e-01,-1.04,-0.68
4.8644e-01,-0.96,-1.24
4.8683e-01,-0.9,-0.74
4.8721e-01,-1,-1.28
4.8760e-01,-0.94,-0.72
4.8798e-01,-1,-1.2
4.8836e-01,-1.02,-0.74
4.8875e-01,-0.96,-1.22
4.8913e-01,-0.82,-0.68
4.8952e-01,-0.96,-1.22
4.8990e-01,-0.9,-0.76
4.9028e-01,-0.94,-1.24
4.9067e-01,-0.98,-0.74
4.9105e-01,-0.82,-1.22
4.9144e-01,-0.82,-0.7
4.9182e-01,-0.96,-1.22
4.9220e-01,-1.04,-0.74
4.9259e-01,-1.06,-1.22
4.9297e-01,-1.04,-0.74
4.9336e-01,-0.9,-1.28
4.9374e-01,-0.94,-0.76
4.9412e-01,-1.02,-1.22
4.9451e-01,-1.06,-0.74
4.9489e-01,-0.9,-1.22
4.9528e-01,-1.04,-0.74
4.9566e-01,-0.92,-1.2
4.9604e-01,-1.02,-0.74
4.9643e-01,-1,-1.2
4.9681e-01,-0.96,-0.7
4.9720e-01,-0.9,-1.18
4.9758e-01,-0.92,-0.7
4.9796e-01,-0.96,-1.26
4.9835e-01,-0.92,-0.74
4.9873e-01,-1.06,-1.26
4.9912e-01,-0.98,-0.78
4.9950e-01,-0.92,-1.24
4.9989e-01,-0.98,-0.76
5.0027e-01,-1,-1.22
5.0065e-01,-0.96,-0.68
5.0104e-01,-0.88,-1.22
5.0142e-01,-1.02,-0.74
5.0181e-01,-1.08,-1.18
5.0219e-01,-1,-0.74
5.0257e-01,-1.04,-1.2
5.0296e-01,-0.9,-0.74
5.0334e-01,-0.98,-1.22
5.0373e-01,-0.88,-0.74
5.0411e-01,-0.98,-1.26
5.0449e-01,-1.02,-0.68
5.0488e-01,-1.02,-1.24
5.0526e-01,-0.86,-0.72
5.0565e-01,-0.96,-1.24
5.0603e-01,-1,-0.76
5.0641e-01,-1,-1.24
5.0680e-01,-0.96,-0.72
5.0718e-01,-0.88,-1.2
5.0757e-01,-0.96,-0.76
5.0795e-01,-1.16,-1.2
5.0833e-01,-0.94,-0.74
5.0872e-01,-1.04,-1.22
5.0910e-01,-1.02,-0.74
5.0949e-01,-1.08,-1.26
5.0987e-01,-1,-0.7
5.1025e-01,-1.04,-1.24
5.1064e-01,-0.82,-0.72
5.1102e-01,-1.02,-1.2
5.1141e-01,-1.04,-0.72
5.1179e-01,-1.08,-1.2
5.1217e-01,-1.04,-0.76
5.1256e-01,-0.84,-1.18
5.1294e-01,-0.9,-0.74
5.1333e-01,-0.98,-1.2
5.1371e-01,-0.94,-0.72
5.1409e-01,-0.98,-1.2
5.1448e-01,-0.92,-0.7
5.1486e-01,-0.98,-1.22
5.1525e-01,-1.04,-0.7
5.1563e-01,-0.96,-1.2
5.1601e-01,-1,-0.76
5.1640e-01,-1.06,-1.26
5.1678e-01,-0.92,-0.64
5.1717e-01,-1.04,-1.2
5.1755e-01,-0.94,-0.74
5.1793e-01,-1.02,-1.18
5.1832e-01,-1.04,-0.68
5.1870e-01,-0.9,-1.22
5.1909e-01,-0.9,-0.68
5.1947e-01,-0.94,-1.26
5.1985e-01,-1,-0.7
5.2024e-01,-0.9,-1.22
5.2062e-01,-0.96,-0.72
5.2101e-01,-0.98,-1.24
5.2139e-01,-1,-0.72
5.2177e-01,-0.96,-1.2
5.2216e-01,-1,-0.72
5.2254e-01,-1,-1.22
5.2293e-01,-0.98,-0.72
5.2331e-01,-0.88,-1.26
5.2369e-01,-1,-0.74
5.2408e-01,-0.98,-1.22
5.2446e-01,-0.9,-0.74
5.2485e-01,-1,-1.24
5.2523e-01,-0.96,-0.72
5.2561e-01,-0.94,-1.22
5.2600e-01,-0.94,-0.72
5.2638e-01,-0.9,-1.18
5.2677e-01,-0.9,-0.72
5.2715e-01,-0.92,-1.22
5.2753e-01,-1.04,-0.7
5.2792e-01,-1.12,-1.24
5.2830e-01,-0.98,-0.66
5.2869e-01,-0.98,-1.18
5.2907e-01,-1.06,-0.66
5.2945e-01,-0.86,-1.22
5.2984e-01,-0.94,-0.68
5.3022e-01,-0.88,-1.26
5.3061e-01,-0.98,-0.64
5.3099e-01,-0.88,-1.34
5.3138e-01,-1.02,-0.76
5.3176e-01,-0.86,-1.22
5.3214e-01,-1.16,-0.78
5.3253e-01,-0.94,-1.22
5.3291e-01,-1.02,-0.76
5.3330e-01,-0.94,-1.28
5.3368e-01,-0.96,-0.76
5.3406e-01,-1.08,-1.26
5.3445e-01,-0.96,-0.7
5.3483e-01,-0.96,-1.3
5.3522e-01,-1.08,-0.74
5.3560e-01,-0.88,-1.2
5.3598e-01,-0.86,-0.72
5.3637e-01,-0.92,-1.2
5.3675e-01,-1.04,-0.74
5.3714e-01,-0.92,-1.22
5.3752e-01,-1.02,-0.72
5.3790e-01,-0.82,-1.22
5.3829e-01,-0.96,-0.72
5.3867e-01,-0.9,-1.2
5.3906e-01,-1.04,-0.64
5.3944e-01,-1.04,-1.22
5.3982e-01,-0.98,-0.72
5.4021e-01,-0.96,-1.18
5.4059e-01,-0.94,-0.74
5.4098e-01,-0.82,-1.24
5.4136e-01,-0.98,-0.72
5.4174e-01,-0.92,-1.22
5.4213e-01,-0.98,-0.7
5.4251e-01,-0.88,-1.22
5.4290e-01,-1.02,-0.72
5.4328e-01,-1.14,-1.18
5.4366e-01,-0.92,-0.72
5.4405e-01,-0.98,-1.24
5.4443e-01,-1.04,-0.76
5.4482e-01,-1.02,-1.2
5.4520e-01,-0.96,-0.72
5.4558e-01,-0.98,-1.2
5.4597e-01,-0.94,-0.72
5.4635e-01,-1,-1.2
5.4674e-01,-0.94,-0.7
5.4712e-01,-0.96,-1.22
5.4750e-01,-1.04,-0.76
5.4789e-01,-1,-1.28
5.4827e-01,-0.96,-0.7
5.4866e-01,-1.02,-1.28
5.4904e-01,-1.04,-0.74
5.4942e-01,-1.04,-1.18
5.4981e-01,-1,-0.72
5.5019e-01,-0.94,-1.26
5.5058e-01,-0.94,-0.74
5.5096e-01,-1.08,-1.2
5.5134e-01,-1.04,-0.74
5.5173e-01,-0.92,-1.2
5.5211e-01,-0.98,-0.72
5.5250e-01,-0.9,-1.18
5.5288e-01,-0.96,-0.7
5.5326e-01,-1,-1.22
5.5365e-01,-1,-0.68
5.5403e-01,-0.92,-1.22
5.5442e-01,-1.04,-0.7
5.5480e-01,-0.92,-1.26
5.5518e-01,-1.04,-0.74
5.5557e-01,-0.94,-1.2
5.5595e-01,-1.02,-0.76
5.5634e-01,-0.9,-1.22
5.5672e-01,-1,-0.72
5.5710e-01,-1.02,-1.2
5.5749e-01,-0.94,-0.7
5.5787e-01,-0.92,-1.2
5.5826e-01,-0.96,-0.68
5.5864e-01,-1,-1.18
5.5902e-01,-0.96,-0.74
5.5941e-01,-1,-1.22
5.5979e-01,-1.04,-0.7
5.6018e-01,-0.98,-1.18
5.6056e-01,-1,-0.74
5.6095e-01,-0.98,-1.28
5.6133e-01,-0.98,-0.68
5.6171e-01,-0.98,-1.26
5.6210e-01,-1,-0.72
5.6248e-01,-1,-1.22
5.6287e-01,-1.04,-0.68
5.6325e-01,-0.98,-1.2
5.6363e-01,-0.96,-0.76
5.6402e-01,-1,-1.2
5.6440e-01,-0.98,-0.7
5.6479e-01,-0.96,-1.26
5.6517e-01,-1,-0.7
5.6555e-01,-0.94,-1.2
5.6594e-01,-0.88,-0.74
5.6632e-01,-1,-1.2
5.6671e-01,-0.9,-0.74
5.6709e-01,-0.94,-1.24
5.6747e-01,-0.92,-0.7
5.6786e-01,-0.94,-1.24
5.6824e-01,-0.94,-0.7
5.6863e-01,-1.08,-1.24
5.6901e-01,-0.92,-0.74
5.6939e-01,-0.9,-1.22
5.6978e-01,-0.98,-0.74
5.7016e-01,-0.98,-1.22
5.7055e-01,-0.96,-0.72
5.7093e-01,-0.9,-1.18
5.7131e-01,-0.9,-0.72
5.7170e-01,-0.94,-1.18
5.7208e-01,-0.92,-0.72
5.7247e-01,-1.2,-1.26
5.7285e-01,-0.96,-0.74
5.7323e-01,-0.96,-1.22
5.7362e-01,-0.78,-0.74
5.7400e-01,-0.86,-1.24
5.7439e-01,-1.08,-0.68
5.7477e-01,-0.96,-1.24
5.7515e-01,-1.06,-0.76
5.7554e-01,-1,-1.2
5.7592e-01,-0.82,-0.7
5.7631e-01,-1.06,-1.2
5.7669e-01,-1.02,-0.68
5.7707e-01,-1.04,-1.28
5.7746e-01,-0.98,-0.76
5.7784e-01,-0.92,-1.22
5.7823e-01,-0.96,-0.74
5.7861e-01,-1,-1.26
5.7899e-01,-0.98,-0.74
5.7938e-01,-0.96,-1.24
5.7976e-01,-0.92,-0.74
5.8015e-01,-0.96,-1.22
5.8053e-01,-0.96,-0.7
5.8091e-01,-0.9,-1.24
5.8130e-01,-0.9,-0.72
5.8168e-01,-0.98,-1.24
5.8207e-01,-0.96,-0.7
5.8245e-01,-0.98,-1.24
5.8283e-01,-1.08,-0.74
5.8322e-01,-0.92,-1.22
5.8360e-01,-1.1,-0.72
5.8399e-01,-0.82,-1.22
5.8437e-01,-0.92,-0.7
5.8475e-01,-1.06,-1.24
5.8514e-01,-0.96,-0.7
5.8552e-01,-0.94,-1.24
5.8591e-01,-0.92,-0.76
5.8629e-01,-1.02,-1.24
5.8667e-01,-0.92,-0.68
5.8706e-01,-0.82,-1.24
5.8744e-01,-1,-0.7
5.8783e-01,-0.98,-1.2
5.8821e-01,-0.98,-0.74
5.8859e-01,-1,-1.24
5.8898e-01,-0.92,-0.68
5.8936e-01,-1.04,-1.22
5.8975e-01,-1.04,-0.74
5.9013e-01,-0.96,-1.18
5.9051e-01,-1.14,-0.72
5.9090e-01,-1.02,-1.22
5.9128e-01,-0.94,-0.74
5.9167e-01,-0.86,-1.22
5.9205e-01,-1.04,-0.74
5.9244e-01,-0.94,-1.2
5.9282e-01,-0.96,-0.74
5.9320e-01,-1,-1.18
5.9359e-01,-0.98,-0.7
5.9397e-01,-0.98,-1.2
5.9436e-01,-1.14,-0.74
5.9474e-01,-0.96,-1.2
5.9512e-01,-0.84,-0.68
5.9551e-01,-0.9,-1.22
5.9589e-01,-1,-0.7
5.9628e-01,-0.96,-1.18
5.9666e-01,-1.02,-0.74
5.9704e-01,-0.9,-1.18
5.9743e-01,-0.98,-0.74
5.9781e-01,-0.94,-1.18
5.9820e-01,-1.06,-0.7
5.9858e-01,-0.92,-1.2
5.9896e-01,-1.04,-0.66
5.9935e-01,-0.92,-1.22
5.9973e-01,-0.92,-0.7
6.0012e-01,-1.04,-1.22
6.0050e-01,-1.02,-0.72
6.0088e-01,-0.98,-1.2
6.0127e-01,-0.82,-0.76
6.0165e-01,-0.88,-1.24
6.0204e-01,-0.96,-0.72
6.0242e-01,-0.94,-1.2
6.0280e-01,-1.08,-0.7
6.0319e-01,-0.98,-1.3
6.0357e-01,-1.06,-0.7
6.0396e-01,-0.96,-1.18
6.0434e-01,-0.9,-0.76
6.0472e-01,-0.92,-1.18
6.0511e-01,-0.92,-0.72
6.0549e-01,-0.9,-1.2
6.0588e-01,-0.9,-0.76
6.0626e-01,-0.98,-1.2
6.0664e-01,-1,-0.76
6.0703e-01,-0.94,-1.22
6.0741e-01,-0.88,-0.74
6.0780e-01,-0.92,-1.3
6.0818e-01,-0.98,-0.74
6.0856e-01,-0.94,-1.2
6.0895e-01,-0.92,-0.74
6.0933e-01,-0.96,-1.24
6.0972e-01,-1,-0.68
6.1010e-01,-0.98,-1.18
6.1048e-01,-0.96,-0.72
6.1087e-01,-0.94,-1.24
6.1125e-01,-1,-0.68
6.1164e-01,-0.98,-3.52
6.1202e-01,-1.06,1.5
6.1240e-01,-1.08,-1.48
6.1279e-01,-1.16,-0.92
6.1317e-01,-1.02,-1.36
6.1356e-01,-1.02,-0.88
6.1394e-01,-1.08,-1.32
6.1432e-01,-1.14,-0.8
6.1471e-01,-1.06,-1.28
6.1509e-01,-1,-0.76
6.1548e-01,-0.98,-1.24
6.1586e-01,-0.96,-0.7
6.1624e-01,-0.92,-1.26
6.1663e-01,-1,-0.76
6.1701e-01,-1,-1.2
6.1740e-01,-1.08,-0.7
6.1778e-01,-0.96,-1.2
6.1816e-01,-0.96,-0.76
6.1855e-01,-0.88,-1.24
6.1893e-01,-0.9,-0.74
6.1932e-01,-1.1,-1.22
6.1970e-01,-1.02,-0.7
6.2008e-01,-1.06,-1.24
6.2047e-01,-0.98,-0.74
6.2085e-01,-1.06,-1.22
6.2124e-01,-1.06,-0.72
6.2162e-01,-1.02,-1.24
6.2200e-01,-1.1,-0.76
6.2239e-01,-1.02,-1.26
6.2277e-01,-0.98,-0.76
6.2316e-01,-0.9,-1.24
6.2354e-01,-1.08,-0.76
6.2393e-01,-1.1,-1.24
6.2431e-01,-0.96,-0.72
6.2469e-01,-1.02,-1.24
6.2508e-01,-0.98,-0.74
6.2546e-01,-1.08,-1.24
6.2585e-01,-0.98,-0.76
6.2623e-01,-0.92,-1.22
6.2661e-01,-0.92,-0.76
6.2700e-01,-0.94,-1.26
6.2738e-01,-0.86,-0.72
6.2777e-01,-0.94,-1.26
6.2815e-01,-0.9,-0.72
6.2853e-01,-0.86,-1.24
6.2892e-01,-0.98,-0.76
6.2930e-01,-1.1,-1.24
6.2969e-01,-1.02,-0.76
6.3007e-01,-1,-1.26
6.3045e-01,-1,-0.74
6.3084e-01,-1.04,-1.28
6.3122e-01,-0.84,-0.74
6.3161e-01,-0.96,-1.28
6.3199e-01,-0.88,-0.76
6.3237e-01,-1.02,-1.24
6.3276e-01,-1,-0.78
6.3314e-01,-1.02,-1.26
6.3353e-01,-1.04,-0.7
6.3391e-01,-1.08,-1.24
6.3429e-01,-0.94,-0.78
6.3468e-01,-0.92,-1.28
6.3506e-01,-1.1,-0.8
6.3545e-01,-1.16,-1.26
6.3583e-01,-0.92,-0.72
6.3621e-01,-0.94,-1.26
6.3660e-01,-1.04,-0.78
6.3698e-01,-1.08,-1.24
6.3737e-01,-1.12,-0.72
6.3775e-01,-1,-1.2
6.3813e-01,-0.94,-0.76
6.3852e-01,-0.98,-1.22
6.3890e-01,-1.06,-0.74
6.3929e-01,-0.98,-1.24
6.3967e-01,-1.12,-0.76
6.4005e-01,-0.92,-1.24
6.4044e-01,-1.1,-0.76
6.4082e-01,-1.04,-1.26
6.4121e-01,-1,-0.72
6.4159e-01,-0.92,-1.26
6.4197e-01,-0.92,-0.72
6.4236e-01,-1.06,-1.22
6.4274e-01,-0.94,-0.74
6.4313e-01,-1.08,-1.2
6.4351e-01,-0.96,-0.74
6.4389e-01,-1,-1.26
6.4428e-01,-0.98,-0.76
6.4466e-01,-0.94,-1.28
6.4505e-01,-0.96,-0.74
6.4543e-01,-0.98,-1.22
6.4581e-01,-0.94,-0.72
6.4620e-01,-1.06,-1.22
6.4658e-01,-0.96,-0.74
6.4697e-01,-0.94,-1.26
6.4735e-01,-1.06,-0.78
6.4773e-01,-1.1,-1.22
6.4812e-01,-1.02,-0.78
6.4850e-01,-0.88,-1.24
6.4889e-01,-1.04,-0.72
6.4927e-01,-1.02,-1.24
6.4965e-01,-1.08,-0.72
6.5004e-01,-0.84,-1.22
6.5042e-01,-0.92,-0.7
6.5081e-01,-0.98,-1.24
6.5119e-01,-1.02,-0.74
6.5157e-01,-1.04,-1.22
6.5196e-01,-0.9,-0.7
6.5234e-01,-1,-1.24
6.5273e-01,-0.92,-0.72
6.5311e-01,-1.06,-1.26
6.5349e-01,-1,-0.76
6.5388e-01,-0.96,-1.2
6.5426e-01,-1.1,-0.74
6.5465e-01,-0.86,-1.22
6.5503e-01,-1.02,-0.76
6.5542e-01,-1.08,-1.22
6.5580e-01,-0.92,-0.72
6.5618e-01,-1.04,-1.3
6.5657e-01,-0.9,-0.76
6.5695e-01,-1.06,-1.26
6.5734e-01,-1.04,-0.76
6.5772e-01,-1.06,-1.24
6.5810e-01,-0.94,-0.7
6.5849e-01,-1.08,-1.3
6.5887e-01,-1.08,-0.7
6.5926e-01,-0.96,-1.2
6.5964e-01,-1.06,-0.72
6.6002e-01,-0.98,-1.24
6.6041e-01,-1.04,-0.78
6.6079e-01,-1.02,-1.28
6.6118e-01,-0.86,-0.78
6.6156e-01,-0.9,-1.2
6.6194e-01,-0.92,-0.72
6.6233e-01,-0.94,-1.22
6.6271e-01,-0.96,-0.68
6.6310e-01,-1.02,-1.24
6.6348e-01,-0.96,-0.7
6.6386e-01,-0.86,-1.24
6.6425e-01,-1.04,-0.7
6.6463e-01,-1.02,-1.26
6.6502e-01,-1.04,-0.78
6.6540e-01,-1.04,-1.28
6.6578e-01,-0.98,-0.72
6.6617e-01,-0.86,-1.24
6.6655e-01,-1.02,-0.78
6.6694e-01,-0.96,-1.24
6.6732e-01,-1.04,-0.76
6.6770e-01,-0.92,-1.26
6.6809e-01,-0.98,-0.78
6.6847e-01,-0.98,-1.22
6.6886e-01,-0.96,-0.74
6.6924e-01,-1.02,-1.28
6.6962e-01,-0.82,-0.72
6.7001e-01,-0.98,-1.24
6.7039e-01,-1,-0.74
6.7078e-01,-1.06,-1.22
6.7116e-01,-1,-0.76
6.7154e-01,-1.08,-1.26
6.7193e-01,-0.88,-0.76
6.7231e-01,-1,-1.26
6.7270e-01,-0.98,-0.74
6.7308e-01,-1.1,-1.3
6.7346e-01,-1.02,-0.72
6.7385e-01,-1.16,-1.26
6.7423e-01,-1.12,-0.72
6.7462e-01,-1.06,-1.22
6.7500e-01,-1.02,-0.72
6.7538e-01,-0.86,-1.3
6.7577e-01,-0.98,-0.78
6.7615e-01,-1.02,-1.22
6.7654e-01,-0.96,-0.72
6.7692e-01,-1.04,-1.22
6.7730e-01,-1.1,-0.72
6.7769e-01,-1.06,-1.26
6.7807e-01,-1.04,-0.74
6.7846e-01,-1.08,-1.24
6.7884e-01,-1,-0.74
6.7922e-01,-1.04,-1.24
6.7961e-01,-1.06,-0.76
6.7999e-01,-0.94,-1.2
6.8038e-01,-0.98,-0.76
6.8076e-01,-0.9,-1.28
6.8114e-01,-0.98,-0.76
6.8153e-01,-0.96,-1.24
6.8191e-01,-1,-0.76
6.8230e-01,-1.06,-1.22
6.8268e-01,-1.1,-0.74
6.8306e-01,-1.08,-1.22
6.8345e-01,-0.9,-0.74
6.8383e-01,-1.04,-1.28
6.8422e-01,-1.14,-0.72
6.8460e-01,-1.06,-1.24
6.8498e-01,-1.02,-0.74
6.8537e-01,-0.94,-1.22
6.8575e-01,-0.96,-0.78
6.8614e-01,-1.08,-1.24
6.8652e-01,-1,-0.74
6.8691e-01,-1.02,-1.24
6.8729e-01,-1.08,-0.72
6.8767e-01,-0.96,-1.24
6.8806e-01,-1.02,-0.74
6.8844e-01,-1.08,-1.24
6.8883e-01,-1.1,-0.76
6.8921e-01,-1.04,-1.28
6.8959e-01,-0.9,-0.72
6.8998e-01,-1.04,-1.26
6.9036e-01,-1.04,-0.72
6.9075e-01,-1.02,-1.26
6.9113e-01,-0.94,-0.74
6.9151e-01,-1.06,-1.28
6.9190e-01,-1,-0.76
6.9228e-01,-0.96,-1.26
6.9267e-01,-1,-0.72
6.9305e-01,-1.02,-1.26
6.9343e-01,-0.98,-0.8
6.9382e-01,-1,-1.26
6.9420e-01,-1.02,-0.74
6.9459e-01,-0.96,-1.22
6.9497e-01,-1.08,-0.78
6.9535e-01,-0.86,-1.24
6.9574e-01,-0.96,-0.76
6.9612e-01,-1.1,-1.26
6.9651e-01,-1.06,-0.72
6.9689e-01,-1.06,-1.2
6.9727e-01,-0.96,-0.7
6.9766e-01,-1.02,-1.24
6.9804e-01,-1,-0.74
6.9843e-01,-1.16,-1.24
6.9881e-01,-1,-0.74
6.9919e-01,-0.9,-1.24
6.9958e-01,-1.04,-0.76
6.9996e-01,-1.08,-1.26
7.0035e-01,-1,-0.74
7.0073e-01,-1.1,-1.22
7.0111e-01,-0.98,-0.78
7.0150e-01,-1.02,-1.24
7.0188e-01,-1.04,-0.78
7.0227e-01,-0.98,-1.28
7.0265e-01,-1,-0.72
7.0303e-01,-0.98,-1.24
7.0342e-01,-1.04,-0.76
7.0380e-01,-0.94,-1.24
7.0419e-01,-0.96,-0.74
7.0457e-01,-0.98,-1.26
7.0495e-01,-0.92,-0.76
7.0534e-01,-1.02,-1.22
7.0572e-01,-0.88,-0.74
7.0611e-01,-1,-1.22
7.0649e-01,-1,-0.78
7.0687e-01,-0.96,-1.22
7.0726e-01,-0.96,-0.76
7.0764e-01,-1.12,-1.28
7.0803e-01,-1,-0.76
7.0841e-01,-0.98,-1.28
7.0879e-01,-1.04,-0.7
7.0918e-01,-1.04,-1.24
7.0956e-01,-0.92,-0.74
7.0995e-01,-1.02,-1.26
7.1033e-01,-1.06,-0.74
7.1071e-01,-0.98,-1.24
7.1110e-01,-0.9,-0.76
7.1148e-01,-0.86,-1.24
7.1187e-01,-0.96,-0.72
7.1225e-01,-1.16,-1.22
7.1263e-01,-1,-0.7
7.1302e-01,-0.98,-1.24
7.1340e-01,-0.96,-0.76
7.1379e-01,-1,-1.24
7.1417e-01,-0.92,-0.74
7.1455e-01,-1,-1.26
7.1494e-01,-1.02,-0.72
7.1532e-01,-0.98,-1.28
7.1571e-01,-1.08,-0.72
7.1609e-01,-0.96,-1.22
7.1647e-01,-1,-0.76
7.1686e-01,-0.92,-1.26
7.1724e-01,-0.92,-0.78
7.1763e-01,-1.12,-1.24
7.1801e-01,-1.04,-0.7
7.1840e-01,-1.06,-1.3
7.1878e-01,-1.14,-0.74
7.1916e-01,-0.94,-1.26
7.1955e-01,-1.02,-0.76
7.1993e-01,-0.9,-1.26
7.2032e-01,-1.04,-0.78
7.2070e-01,-0.96,-1.28
7.2108e-01,-0.92,-0.76
7.2147e-01,-1.12,-1.24
7.2185e-01,-1.02,-0.72
7.2224e-01,-1.06,-1.22
7.2262e-01,-0.96,-0.74
7.2300e-01,-0.96,-1.24
7.2339e-01,-1,-0.76
7.2377e-01,-0.98,-1.28
7.2416e-01,-1.12,-0.76
7.2454e-01,-0.96,-1.22
7.2492e-01,-0.94,-0.76
7.2531e-01,-0.96,-1.26
7.2569e-01,-1.1,-0.76
7.2608e-01,-1.1,-1.28
7.2646e-01,-1.02,-0.68
7.2684e-01,-1.02,-1.28
7.2723e-01,-1.02,-0.76
7.2761e-01,-1.02,-1.24
7.2800e-01,-0.96,-0.74
7.2838e-01,-1.1,-1.3
7.2876e-01,-1,-0.66
7.2915e-01,-1.06,-1.32
7.2953e-01,-1.04,-0.76
7.2992e-01,-1.12,-1.2
7.3030e-01,-0.88,-0.76
7.3068e-01,-1.04,-1.24
7.3107e-01,-1.04,-0.76
7.3145e-01,-0.8,-1.26
7.3184e-01,-1,-0.7
7.3222e-01,-0.96,-1.22
7.3260e-01,-0.86,-0.72
7.3299e-01,-1.02,-1.24
7.3337e-01,-1.08,-0.72
7.3376e-01,-1.08,-1.22
7.3414e-01,-0.94,-0.74
7.3452e-01,-1.06,-1.26
7.3491e-01,-1.02,-0.78
7.3529e-01,-0.98,-1.26
7.3568e-01,-1.02,-0.78
7.3606e-01,-1.06,-1.26
7.3644e-01,-0.96,-0.74
7.3683e-01,-1.04,-1.28
7.3721e-01,-1.06,-0.76
7.3760e-01,-1.06,-1.24
7.3798e-01,-1.04,-0.74
7.3836e-01,-1.12,-1.26
7.3875e-01,-0.92,-0.7
7.3913e-01,-0.96,-1.26
7.3952e-01,-1,-0.66
7.3990e-01,-1.1,-1.24
7.4028e-01,-0.92,-0.7
7.4067e-01,-0.98,-1.28
7.4105e-01,-0.98,-0.76
7.4144e-01,-0.96,-1.26
7.4182e-01,-0.88,-0.76
7.4220e-01,-0.94,-1.24
7.4259e-01,-0.96,-0.76
7.4297e-01,-1.06,-1.28
7.4336e-01,-1.12,-0.74
7.4374e-01,-1,-1.24
7.4412e-01,-1.06,-0.74
7.4451e-01,-1.1,-1.32
7.4489e-01,-1,-0.76
7.4528e-01,-1.04,-1.3
7.4566e-01,-1.06,-0.72
7.4604e-01,-0.96,-1.24
7.4643e-01,-0.88,-0.74
7.4681e-01,-1,-1.22
7.4720e-01,-1.14,-0.74
7.4758e-01,-0.96,-1.32
7.4796e-01,-0.98,-0.78
7.4835e-01,-0.98,-1.2
7.4873e-01,-0.96,-0.72
7.4912e-01,-1.04,-1.3
7.4950e-01,-1.06,-0.74
7.4989e-01,-0.94,-1.24
7.5027e-01,-1.04,-0.8
7.5065e-01,-1.06,-1.3
7.5104e-01,-1.06,-0.78
7.5142e-01,-0.94,-1.24
7.5181e-01,-1.02,-0.72
7.5219e-01,-1,-1.26
7.5257e-01,-0.94,-0.8
7.5296e-01,-1.1,-1.24
7.5334e-01,-1.02,-0.74
7.5373e-01,-0.98,-1.24
7.5411e-01,-1.06,-0.78
7.5449e-01,-0.94,-1.3
7.5488e-01,-0.98,-0.76
7.5526e-01,-1,-1.22
7.5565e-01,-1.06,-0.76
7.5603e-01,-0.94,-1.32
7.5641e-01,-1.16,-0.76
7.5680e-01,-1,-1.24
7.5718e-01,-1.08,-0.74
7.5757e-01,-1.02,-1.22
7.5795e-01,-0.88,-0.68
7.5833e-01,-1.04,-1.3
7.5872e-01,-1.12,-0.74
7.5910e-01,-0.98,-1.24
7.5949e-01,-1.1,-0.76
7.5987e-01,-0.88,-1.28
7.6025e-01,-0.96,-0.74
7.6064e-01,-0.98,-1.24
7.6102e-01,-0.98,-0.76
7.6141e-01,-0.98,-1.22
7.6179e-01,-0.92,-0.78
7.6217e-01,-1.18,-1.26
7.6256e-01,-0.94,-0.74
7.6294e-01,-1,-1.22
7.6333e-01,-1.1,-0.74
7.6371e-01,-1.02,-1.24
7.6409e-01,-0.86,-0.78
7.6448e-01,-0.98,-1.24
7.6486e-01,-1.04,-0.68
7.6525e-01,-1.04,-1.26
7.6563e-01,-1.16,-0.72
7.6601e-01,-0.9,-1.3
7.6640e-01,-0.86,-0.78
7.6678e-01,-1.06,-1.22
7.6717e-01,-1.1,-0.78
7.6755e-01,-1.14,-1.22
7.6793e-01,-0.96,-0.8
7.6832e-01,-0.98,-1.3
7.6870e-01,-0.94,-0.74
7.6909e-01,-1.04,-1.26
7.6947e-01,-0.98,-0.76
7.6985e-01,-1.02,-1.2
7.7024e-01,-0.92,-0.68
7.7062e-01,-0.98,-1.32
7.7101e-01,-0.9,-0.74
7.7139e-01,-1.02,-1.26
7.7177e-01,-1.1,-0.72
7.7216e-01,-0.92,-1.24
7.7254e-01,-1.08,-0.76
7.7293e-01,-0.98,-1.22
7.7331e-01,-0.98,-0.78
7.7369e-01,-0.96,-1.28
7.7408e-01,-0.9,-0.74
7.7446e-01,-1.04,-1.24
7.7485e-01,-0.96,-0.76
7.7523e-01,-0.9,-1.24
7.7561e-01,-1.04,-0.68
7.7600e-01,-0.92,-1.22
7.7638e-01,-1.06,-0.78
7.7677e-01,-0.78,-1.24
7.7715e-01,-1.04,-0.7
7.7753e-01,-0.98,-1.26
7.7792e-01,-0.98,-0.76
7.7830e-01,-1.14,-1.26
7.7869e-01,-1.22,-0.74
7.7907e-01,-0.98,-1.28
7.7945e-01,-0.9,-0.7
7.7984e-01,-1.04,-1.24
7.8022e-01,-1.02,-0.78
7.8061e-01,-1.06,-1.28
7.8099e-01,-0.98,-0.76
7.8138e-01,-1.08,-1.26
7.8176e-01,-1.06,-0.7
7.8214e-01,-1.06,-1.22
7.8253e-01,-0.96,-0.72
7.8291e-01,-1.02,-1.28
7.8330e-01,-1,-0.8
7.8368e-01,-0.92,-1.26
7.8406e-01,-1.04,-0.78
7.8445e-01,-1.12,-1.24
7.8483e-01,-1.06,-0.76
7.8522e-01,-0.98,-1.24
7.8560e-01,-1,-0.74
7.8598e-01,-1,-1.26
7.8637e-01,-0.9,-0.78
7.8675e-01,-1.2,-1.24
7.8714e-01,-1.02,-0.8
7.8752e-01,-1,-1.22
7.8790e-01,-1,-0.78
7.8829e-01,-1.04,-1.22
7.8867e-01,-0.98,-0.74
7.8906e-01,-1.08,-1.24
7.8944e-01,-1.04,-0.76
7.8982e-01,-0.88,-1.28
7.9021e-01,-1.12,-0.76
7.9059e-01,-1.14,-1.2
7.9098e-01,-0.96,-0.8
7.9136e-01,-1.1,-1.24
7.9174e-01,-0.96,-0.74
7.9213e-01,-1.06,-1.26
7.9251e-01,-1.02,-0.72
7.9290e-01,-1.12,-1.28
7.9328e-01,-0.82,-0.72
7.9366e-01,-0.82,-1.24
7.9405e-01,-0.92,-0.76
7.9443e-01,-0.98,-1.28
7.9482e-01,-1,-0.8
7.9520e-01,-0.92,-1.22
7.9558e-01,-0.96,-0.74
7.9597e-01,-1.12,-1.26
7.9635e-01,-0.96,-0.76
7.9674e-01,-0.96,-1.22
7.9712e-01,-1.04,-0.76
7.9750e-01,-1.1,-1.24
7.9789e-01,-1.02,-0.72
7.9827e-01,-1.06,-1.28
7.9866e-01,-0.9,-0.74
7.9904e-01,-1,-1.28
7.9942e-01,-1.12,-0.74
7.9981e-01,-1.02,-1.24
8.0019e-01,-1,-0.76
8.0058e-01,-1.06,-1.22
8.0096e-01,-1.06,-0.78
8.0134e-01,-0.88,-1.26
8.0173e-01,-0.98,-0.74
8.0211e-01,-1.1,-1.22
8.0250e-01,-0.94,-0.76
8.0288e-01,-0.96,-1.24
8.0326e-01,-0.92,-0.78
8.0365e-01,-1.12,-1.24
8.0403e-01,-1.04,-0.74
8.0442e-01,-1.1,-1.22
8.0480e-01,-0.98,-0.76
8.0518e-01,-0.84,-1.26
8.0557e-01,-1.02,-0.78
8.0595e-01,-0.96,-1.26
8.0634e-01,-1.02,-0.72
8.0672e-01,-1.04,-1.28
8.0710e-01,-0.92,-0.74
8.0749e-01,-1,-1.24
8.0787e-01,-1.06,-0.78
8.0826e-01,-1.1,-1.26
8.0864e-01,-1,-0.8
8.0902e-01,-0.96,-1.24
8.0941e-01,-1.04,-0.8
8.0979e-01,-1.02,-1.22
8.1018e-01,-1.12,-0.72
8.1056e-01,-1.08,-1.26
8.1095e-01,-0.98,-0.78
8.1133e-01,-0.96,-1.28
8.1171e-01,-1.08,-0.72
8.1210e-01,-1.1,-1.28
8.1248e-01,-1.14,-0.78
8.1287e-01,-1.02,-1.28
8.1325e-01,-1.04,-0.74
8.1363e-01,-1.12,-1.26
8.1402e-01,-1.14,-0.76
8.1440e-01,-1.04,-1.22
8.1479e-01,-0.92,-0.76
8.1517e-01,-0.92,-1.22
8.1555e-01,-1.12,-0.78
8.1594e-01,-1.04,-1.26
8.1632e-01,-1.12,-0.76
8.1671e-01,-1,-1.24
8.1709e-01,-1,-0.78
8.1747e-01,-1.04,-1.24
8.1786e-01,-0.96,-0.76
8.1824e-01,-1.08,-1.22
8.1863e-01,-1.06,-0.76
8.1901e-01,-0.9,-1.28
8.1939e-01,-1.16,-0.74
8.1978e-01,-0.9,-1.22
8.2016e-01,-1.04,-0.76
8.2055e-01,-1.04,-1.26
8.2093e-01,-0.9,-0.78
8.2131e-01,-1,-1.24
8.2170e-01,-0.92,-0.76
8.2208e-01,-1.04,-1.24
8.2247e-01,-0.92,-0.8
8.2285e-01,-1,-1.24
8.2323e-01,-1.1,-0.74
8.2362e-01,-1.06,-1.28
8.2400e-01,-0.96,-0.8
8.2439e-01,-0.94,-1.24
8.2477e-01,-0.92,-0.68
8.2515e-01,-1,-1.24
8.2554e-01,-1.04,-0.8
8.2592e-01,-1,-1.2
8.2631e-01,-0.96,-0.76
8.2669e-01,-1.06,-1.22
8.2707e-01,-1.06,-0.76
8.2746e-01,-0.96,-1.36
8.2784e-01,-1,-0.76
8.2823e-01,-1.02,-1.22
8.2861e-01,-0.94,-0.72
8.2899e-01,-0.98,-1.26
8.2938e-01,-1.16,-0.78
8.2976e-01,-1.12,-1.26
8.3015e-01,-1,-0.78
8.3053e-01,-1.06,-1.22
8.3091e-01,-0.94,-0.78
8.3130e-01,-0.98,-1.26
8.3168e-01,-1.04,-0.76
8.3207e-01,-1.02,-1.26
8.3245e-01,-1,-0.72
8.3283e-01,-0.94,-1.26
8.3322e-01,-1,-0.76
8.3360e-01,-1.04,-1.26
8.3399e-01,-0.98,-0.76
8.3437e-01,-1.06,-1.3
8.3475e-01,-0.84,-0.76
8.3514e-01,-0.9,-1.26
8.3552e-01,-1.04,-0.78
8.3591e-01,-1,-1.24
8.3629e-01,-0.98,-0.72
8.3667e-01,-1,-1.28
8.3706e-01,-1.06,-0.78
8.3744e-01,-1.06,-1.24
8.3783e-01,-1.02,-0.78
8.3821e-01,-0.96,-1.22
8.3859e-01,-0.94,-0.74
8.3898e-01,-1.02,-1.26
8.3936e-01,-1.02,-0.76
8.3975e-01,-0.96,-1.24
8.4013e-01,-1.02,-0.78
8.4051e-01,-0.98,-1.26
8.4090e-01,-1.08,-0.74
8.4128e-01,-0.82,-1.26
8.4167e-01,-1.08,-0.7
8.4205e-01,-1.02,-1.3
8.4244e-01,-0.96,-0.76
8.4282e-01,-1.08,-1.26
8.4320e-01,-1.1,-0.76
8.4359e-01,-0.98,-1.24
8.4397e-01,-1,-0.8
8.4436e-01,-1.08,-1.28
8.4474e-01,-1.1,-0.78
8.4512e-01,-1.08,-1.24
8.4551e-01,-1.16,-0.74
8.4589e-01,-0.98,-1.26
8.4628e-01,-1.02,-0.7
8.4666e-01,-0.92,-1.32
8.4704e-01,-1.08,-0.78
8.4743e-01,-1.12,-1.28
8.4781e-01,-0.9,-0.76
8.4820e-01,-0.96,-1.28
8.4858e-01,-1.02,-0.8
8.4896e-01,-0.86,-1.26
8.4935e-01,-1.12,-0.8
8.4973e-01,-1,-1.24
8.5012e-01,-1,-0.78
8.5050e-01,-0.96,-1.26
8.5088e-01,-1.02,-0.76
8.5127e-01,-1.04,-1.3
8.5165e-01,-1.12,-0.78
8.5204e-01,-1.12,-1.24
8.5242e-01,-0.98,-0.74
8.5280e-01,-0.96,-1.24
8.5319e-01,-1.14,-0.72
8.5357e-01,-0.9,-1.24
8.5396e-01,-1.04,-0.76
8.5434e-01,-0.92,-1.26
8.5472e-01,-1.02,-0.76
8.5511e-01,-1,-1.22
8.5549e-01,-1.06,-0.7
8.5588e-01,-0.98,-1.28
8.5626e-01,-0.92,-0.76
8.5664e-01,-0.98,-1.28
8.5703e-01,-1.04,-0.78
8.5741e-01,-1.12,-1.26
8.5780e-01,-0.98,-0.76
8.5818e-01,-0.94,-1.22
8.5856e-01,-1.06,-0.76
8.5895e-01,-1.04,-1.26
8.5933e-01,-1,-0.8
8.5972e-01,-0.98,-1.38
8.6010e-01,-1.08,-0.76
8.6048e-01,-1.12,-1.26
8.6087e-01,-1,-0.78
8.6125e-01,-1.02,-1.28
8.6164e-01,-1,-0.76
8.6202e-01,-0.9,-1.26
8.6240e-01,-1.12,-0.74
8.6279e-01,-1,-1.22
8.6317e-01,-1.02,-0.76
8.6356e-01,-0.94,-1.22
8.6394e-01,-0.92,-0.76
8.6432e-01,-0.94,-1.26
8.6471e-01,-1.1,-0.76
8.6509e-01,-1,-1.22
8.6548e-01,-0.92,-0.76
8.6586e-01,-1.06,-1.24
8.6624e-01,-1,-0.66
8.6663e-01,-0.98,-1.24
8.6701e-01,-1,-0.76
8.6740e-01,-0.88,-1.24
8.6778e-01,-0.88,-0.72
8.6816e-01,-1,-1.22
8.6855e-01,-0.96,-0.74
8.6893e-01,-1.12,-1.2
8.6932e-01,-1.06,-0.72
8.6970e-01,-1.04,-1.24
8.7008e-01,-0.92,-0.76
8.7047e-01,-1.06,-1.24
8.7085e-01,-1,-0.74
8.7124e-01,-0.92,-1.3
8.7162e-01,-0.96,-0.74
8.7200e-01,-1.02,-1.26
8.7239e-01,-1,-0.74
8.7277e-01,-0.96,-1.34
8.7316e-01,-1.04,-0.78
8.7354e-01,-0.94,-1.26
8.7393e-01,-0.94,-0.74
8.7431e-01,-0.96,-1.28
8.7469e-01,-0.94,-0.78
8.7508e-01,-0.96,-1.26
8.7546e-01,-0.94,-0.72
8.7585e-01,-0.94,-1.26
8.7623e-01,-1.1,-0.76
8.7661e-01,-1.06,-1.32
8.7700e-01,-0.88,-0.74
8.7738e-01,-1.06,-1.34
8.7777e-01,-1,-0.72
8.7815e-01,-0.96,-1.22
8.7853e-01,-1,-0.78
8.7892e-01,-0.86,-1.2
8.7930e-01,-1,-0.74
8.7969e-01,-0.9,-1.24
8.8007e-01,-1.1,-0.74
8.8045e-01,-1.04,-1.22
8.8084e-01,-0.94,-0.76
8.8122e-01,-0.96,-1.3
8.8161e-01,-1.04,-0.74
8.8199e-01,-0.92,-1.28
8.8237e-01,-1.1,-0.78
8.8276e-01,-1.04,-1.22
8.8314e-01,-1,-0.78
8.8353e-01,-1,-1.22
8.8391e-01,-0.94,-0.76
8.8429e-01,-1.08,-1.26
8.8468e-01,-1,-0.74
8.8506e-01,-1.06,-1.22
8.8545e-01,-0.9,-0.76
8.8583e-01,-1.02,-1.3
8.8621e-01,-0.92,-0.76
8.8660e-01,-1.12,-1.2
8.8698e-01,-1.02,-0.72
8.8737e-01,-0.94,-1.2
8.8775e-01,-1.04,-0.76
8.8813e-01,-0.96,-1.2
8.8852e-01,-1.02,-0.78
8.8890e-01,-1.06,-1.22
8.8929e-01,-0.98,-0.78
8.8967e-01,-0.88,-1.3
8.9005e-01,-0.98,-0.74
8.9044e-01,-1.12,-1.22
8.9082e-01,-0.98,-0.72
8.9121e-01,-0.98,-1.22
8.9159e-01,-0.9,-0.74
8.9197e-01,-1.08,-1.24
8.9236e-01,-1,-0.74
8.9274e-01,-1.06,-1.26
8.9313e-01,-1.08,-0.78
8.9351e-01,-1.06,-1.28
8.9389e-01,-1.14,-0.72
8.9428e-01,-1.02,-1.28
8.9466e-01,-0.98,-0.78
8.9505e-01,-0.94,-1.24
8.9543e-01,-0.92,-0.76
8.9581e-01,-0.96,-1.26
8.9620e-01,-0.92,-0.66
8.9658e-01,-1.12,-1.24
8.9697e-01,-0.98,-0.76
8.9735e-01,-0.92,-1.24
8.9773e-01,-0.94,-0.76
8.9812e-01,-1.1,-1.22
8.9850e-01,-0.96,-0.7
8.9889e-01,-1.06,-1.24
8.9927e-01,-1,-0.72
8.9965e-01,-1,-1.22
9.0004e-01,-1.02,-0.72
9.0042e-01,-1,-1.24
9.0081e-01,-1.06,-0.74
9.0119e-01,-0.88,-1.24
9.0157e-01,-0.94,-0.74
9.0196e-01,-0.94,-1.22
9.0234e-01,-1.12,-0.8
9.0273e-01,-1.06,-1.22
9.0311e-01,-0.94,-0.76
9.0349e-01,-0.96,-1.24
9.0388e-01,-0.9,-0.76
9.0426e-01,-0.98,-1.22
9.0465e-01,-0.98,-0.76
9.0503e-01,-0.84,-1.3
9.0542e-01,-0.86,-0.78
9.0580e-01,-0.9,-1.24
9.0618e-01,-0.94,-0.74
9.0657e-01,-1.02,-1.28
9.0695e-01,-0.9,-0.76
9.0734e-01,-0.98,-1.24
9.0772e-01,-0.94,-0.8
9.0810e-01,-1.1,-1.24
9.0849e-01,-1.04,-0.78
9.0887e-01,-1.02,-1.28
9.0926e-01,-0.98,-0.76
9.0964e-01,-0.98,-1.28
9.1002e-01,-0.96,-0.78
9.1041e-01,-0.96,-1.26
9.1079e-01,-1.14,-0.74
9.1118e-01,-1,-1.24
9.1156e-01,-1.06,-0.74
9.1194e-01,-0.9,-1.22
9.1233e-01,-1.04,-0.7
9.1271e-01,-1.04,-1.22
9.1310e-01,-1,-0.74
9.1348e-01,-1,-1.28
9.1386e-01,-1.02,-0.74
9.1425e-01,-1.1,-1.22
9.1463e-01,-1.02,-0.76
9.1502e-01,-0.92,-1.28
9.1540e-01,-0.98,-0.76
9.1578e-01,-0.98,-1.28
9.1617e-01,-1.06,-0.76
9.1655e-01,-0.96,-1.24
9.1694e-01,-0.94,-0.78
9.1732e-01,-0.96,-1.22
9.1770e-01,-1.14,-0.76
9.1809e-01,-1,-1.2
9.1847e-01,-1.02,-0.68
9.1886e-01,-0.96,-1.24
9.1924e-01,-0.9,-0.72
9.1962e-01,-1,-1.24
9.2001e-01,-1.08,-0.76
9.2039e-01,-0.9,-1.24
9.2078e-01,-1.04,-0.78
9.2116e-01,-0.98,-1.22
9.2154e-01,-1.06,-0.78
9.2193e-01,-1.04,-1.3
9.2231e-01,-1.14,-0.72
9.2270e-01,-1,-1.26
9.2308e-01,-1.02,-0.68
9.2346e-01,-0.98,-1.26
9.2385e-01,-1.06,-0.76
9.2423e-01,-1.06,-1.3
9.2462e-01,-0.92,-0.74
9.2500e-01,-1.06,-1.3
9.2538e-01,-1.12,-0.72
9.2577e-01,-1.1,-1.24
9.2615e-01,-1.02,-0.74
9.2654e-01,-1.02,-1.22
9.2692e-01,-1.08,-0.78
9.2730e-01,-1.04,-1.2
9.2769e-01,-1.02,-0.76
9.2807e-01,-0.98,-1.18
9.2846e-01,-0.94,-0.78
9.2884e-01,-1,-1.2
9.2922e-01,-1,-0.78
9.2961e-01,-0.84,-1.24
9.2999e-01,-1.06,-0.74
9.3038e-01,-0.86,-1.22
9.3076e-01,-1.04,-0.76
9.3114e-01,-1,-1.22
9.3153e-01,-0.98,-0.76
9.3191e-01,-1.08,-1.24
9.3230e-01,-1.06,-0.72
9.3268e-01,-0.9,-1.3
9.3306e-01,-0.98,-0.78
9.3345e-01,-1.04,-1.28
9.3383e-01,-1.08,-0.74
9.3422e-01,-1.1,-1.3
9.3460e-01,-1.04,-0.72
9.3498e-01,-1.02,-1.26
9.3537e-01,-0.9,-0.7
9.3575e-01,-1.02,-1.26
9.3614e-01,-1.06,-0.68
9.3652e-01,-1.06,-1.22
9.3691e-01,-1.04,-0.76
9.3729e-01,-1.08,-1.24
9.3767e-01,-1.08,-0.78
9.3806e-01,-0.96,-1.26
9.3844e-01,-0.96,-0.76
9.3883e-01,-1.06,-1.24
9.3921e-01,-1,-0.72
9.3959e-01,-1,-1.3
9.3998e-01,-0.78,-0.7
9.4036e-01,-0.98,-1.28
9.4075e-01,-1,-0.74
9.4113e-01,-1.04,-1.26
9.4151e-01,-1.08,-0.76
9.4190e-01,-1.04,-1.24
9.4228e-01,-0.9,-0.8
9.4267e-01,-0.96,-1.22
9.4305e-01,-1.04,-0.8
9.4343e-01,-1.1,-1.24
9.4382e-01,-0.98,-0.76
9.4420e-01,-0.94,-1.24
9.4459e-01,-0.96,-0.72
9.4497e-01,-0.9,-1.22
9.4535e-01,-1.08,-0.74
9.4574e-01,-0.94,-1.24
9.4612e-01,-1.06,-0.78
9.4651e-01,-0.92,-1.24
9.4689e-01,-0.98,-0.66
9.4727e-01,-0.96,-1.26
9.4766e-01,-0.96,-0.76
9.4804e-01,-1,-1.24
9.4843e-01,-1.02,-0.7
9.4881e-01,-0.96,-1.3
9.4919e-01,-1.14,-0.78
9.4958e-01,-0.94,-1.22
9.4996e-01,-1.02,-0.78
9.5035e-01,-1.04,-1.22
9.5073e-01,-1.14,-0.8
9.5111e-01,-1.04,-1.24
9.5150e-01,-1.04,-0.72
9.5188e-01,-1.02,-1.2
9.5227e-01,-0.98,-0.76
9.5265e-01,-1.02,-1.22
9.5303e-01,-1.08,-0.76
9.5342e-01,-1.02,-1.26
9.5380e-01,-0.94,-0.76
9.5419e-01,-0.9,-1.26
9.5457e-01,-1,-0.74
9.5495e-01,-0.98,-1.26
9.5534e-01,-1.1,-0.72
9.5572e-01,-0.96,-1.3
9.5611e-01,-0.98,-0.76
9.5649e-01,-0.96,-1.24
9.5687e-01,-1,-0.78
9.5726e-01,-1,-1.26
9.5764e-01,-0.98,-0.72
9.5803e-01,-1,-1.26
9.5841e-01,-0.94,-0.78
9.5879e-01,-0.98,-1.24
9.5918e-01,-1.08,-0.74
9.5956e-01,-1.08,-1.3
9.5995e-01,-1.04,-0.72
9.6033e-01,-0.9,-1.24
9.6071e-01,-1,-0.7
9.6110e-01,-1.08,-1.26
9.6148e-01,-1.06,-0.78
9.6187e-01,-1.04,-1.26
9.6225e-01,-1.06,-0.8
9.6263e-01,-0.98,-1.28
9.6302e-01,-1.1,-0.78
9.6340e-01,-1.1,-1.22
9.6379e-01,-0.82,-0.7
9.6417e-01,-1.02,-1.3
9.6455e-01,-1,-0.76
9.6494e-01,-1.02,-1.26
9.6532e-01,-1.02,-0.78
9.6571e-01,-1.04,-1.26
9.6609e-01,-1.02,-0.76
9.6647e-01,-1.08,-1.26
9.6686e-01,-1.02,-0.76
9.6724e-01,-1.02,-1.24
9.6763e-01,-0.94,-0.76
9.6801e-01,-1.02,-1.24
9.6840e-01,-0.88,-0.76
9.6878e-01,-1.02,-1.26
9.6916e-01,-1.06,-0.78
9.6955e-01,-0.98,-1.28
9.6993e-01,-0.94,-0.76
9.7032e-01,-1,-1.26
9.7070e-01,-0.92,-0.74
9.7108e-01,-1.08,-1.26
9.7147e-01,-0.96,-0.78
9.7185e-01,-0.9,-1.26
9.7224e-01,-1,-0.76
9.7262e-01,-0.96,-1.24
9.7300e-01,-1.1,-0.74
9.7339e-01,-1.06,-1.26
9.7377e-01,-0.92,-0.76
9.7416e-01,-1.06,-1.24
9.7454e-01,-1.1,-0.76
9.7492e-01,-0.88,-1.28
9.7531e-01,-0.92,-0.72
9.7569e-01,-0.92,-1.26
9.7608e-01,-0.96,-0.74
9.7646e-01,-0.98,-1.28
9.7684e-01,-1.18,-0.72
9.7723e-01,-1.02,-1.26
9.7761e-01,-1.02,-0.78
9.7800e-01,-0.9,-1.34
9.7838e-01,-1.02,-0.76
9.7876e-01,-1.14,-1.32
9.7915e-01,-0.96,-0.78
9.7953e-01,-0.94,-1.28
9.7992e-01,-0.98,-0.68
9.8030e-01,-1.14,-1.24
9.8068e-01,-0.92,-0.72
9.8107e-01,-1.02,-1.38
9.8145e-01,-0.9,-0.78
9.8184e-01,-0.92,-1.22
9.8222e-01,-1.02,-0.78
9.8260e-01,-1.02,-1.28
9.8299e-01,-0.98,-0.74
9.8337e-01,-1,-1.24
9.8376e-01,-1.06,-0.72
9.8414e-01,-0.92,-1.26
9.8452e-01,-1.08,-0.76
9.8491e-01,-1.08,-1.28
9.8529e-01,-1.06,-0.76
9.8568e-01,-0.92,-1.24
9.8606e-01,-1.08,-0.76
9.8644e-01,-1.06,-1.24
9.8683e-01,-0.96,-0.78
9.8721e-01,-0.94,-1.26
9.8760e-01,-0.94,-0.76
9.8798e-01,-0.82,-1.22
9.8836e-01,-1,-0.74
9.8875e-01,-1.06,-1.24
9.8913e-01,-0.98,-0.78
9.8952e-01,-1.06,-1.24
9.8990e-01,-0.88,-0.72
9.9028e-01,-0.96,-1.24
9.9067e-01,-0.78,-0.68
9.9105e-01,-0.96,-1.22
9.9144e-01,-0.92,-0.76
9.9182e-01,-1,-1.22
9.9220e-01,-1.12,-0.78
9.9259e-01,-0.94,-1.22
9.9297e-01,-0.94,-0.74
9.9336e-01,-0.92,-1.24
9.9374e-01,-0.96,-0.74
9.9412e-01,-1.06,-1.24
9.9451e-01,-1.04,-0.74
9.9489e-01,-0.92,-1.24
9.9528e-01,-0.96,-0.7
9.9566e-01,-0.94,-1.28
9.9604e-01,-1.06,-0.72
9.9643e-01,-1.02,-1.24
9.9681e-01,-0.94,-0.72
9.9720e-01,-0.92,-1.26
9.9758e-01,-0.8,-0.76
9.9796e-01,-0.86,-1.22
9.9835e-01,-1.2,-0.76
9.9873e-01,-1.12,-1.26
9.9912e-01,-1,-0.72
9.9950e-01,-1,-1.24
9.9989e-01,-0.96,-0.72
1.0003e+00,-1.1,-1.26
1.0007e+00,-1.04,-0.72
1.0010e+00,-0.92,-1.3
1.0014e+00,-1.02,-0.74
1.0018e+00,-0.9,-1.26
1.0022e+00,-1.06,-0.76
1.0026e+00,-0.86,-1.36
1.0030e+00,-1.04,-0.76
1.0033e+00,-0.88,-1.28
1.0037e+00,-0.96,-0.72
1.0041e+00,-1.04,-1.26
1.0045e+00,-0.94,-0.78
1.0049e+00,-0.94,-1.26
1.0053e+00,-1.1,-0.78
1.0056e+00,-0.92,-1.24
1.0060e+00,-1,-0.7
1.0064e+00,-1.1,-1.26
1.0068e+00,-1.04,-0.74
1.0072e+00,-1.04,-1.26
1.0076e+00,-0.96,-0.78
1.0079e+00,-1.08,-1.26
1.0083e+00,-1.18,-0.76
1.0087e+00,-0.88,-1.26
1.0091e+00,-1.04,-0.78
1.0095e+00,-0.9,-1.26
1.0099e+00,-0.96,-0.74
1.0103e+00,-1.04,-1.26
1.0106e+00,-0.98,-0.8
1.0110e+00,-1.04,-1.3
1.0114e+00,-0.82,-0.76
1.0118e+00,-1.16,-1.22
1.0122e+00,-0.98,-0.78
1.0126e+00,-0.96,-1.24
1.0129e+00,-0.9,-0.78
1.0133e+00,-0.92,-1.26
1.0137e+00,-0.98,-0.76
1.0141e+00,-1.16,-1.24
1.0145e+00,-0.92,-0.74
1.0149e+00,-1.04,-1.28
1.0152e+00,-1,-0.74
1.0156e+00,-0.96,-1.3
1.0160e+00,-0.94,-0.74
1.0164e+00,-0.94,-1.18
1.0168e+00,-0.92,-0.72
1.0172e+00,-1,-1.26
1.0176e+00,-1.08,-0.8
1.0179e+00,-1.06,-1.22
1.0183e+00,-1.08,-0.74
1.0187e+00,-0.96,-1.22
1.0191e+00,-0.94,-0.74
1.0195e+00,-1,-1.26
1.0199e+00,-1.06,-0.74
1.0202e+00,-0.94,-1.24
1.0206e+00,-0.94,-0.7
1.0210e+00,-0.98,-1.22
1.0214e+00,-1.06,-0.7
1.0218e+00,-1.08,-1.24
1.0222e+00,-1.06,-0.76
1.0225e+00,-0.9,-1.26
1.0229e+00,-1,-0.74
1.0233e+00,-0.98,-1.24
1.0237e+00,-1,-0.74
1.0241e+00,-1.06,-1.24
1.0245e+00,-0.96,-0.78
1.0248e+00,-0.92,-1.26
1.0252e+00,-0.98,-0.76
1.0256e+00,-1.1,-1.22
1.0260e+00,-1.06,-0.78
1.0264e+00,-1.02,-1.26
1.0268e+00,-1.02,-0.74
1.0272e+00,-0.92,-1.24
1.0275e+00,-1.02,-0.76
1.0279e+00,-1.12,-1.22
1.0283e+00,-1.06,-0.76
1.0287e+00,-0.94,-1.28
1.0291e+00,-0.96,-0.74
1.0295e+00,-1.08,-1.28
1.0298e+00,-1.12,-0.76
1.0302e+00,-0.96,-1.24
1.0306e+00,-0.94,-0.74
1.0310e+00,-0.86,-1.28
1.0314e+00,-1.1,-0.78
1.0318e+00,-0.92,-1.24
1.0321e+00,-1.04,-0.76
1.0325e+00,-1.08,-1.24
1.0329e+00,-0.86,-0.7
1.0333e+00,-0.98,-1.22
1.0337e+00,-1.02,-0.76
1.0341e+00,-1.04,-1.26
1.0344e+00,-1.1,-0.78
1.0348e+00,-0.98,-1.28
1.0352e+00,-1.04,-0.74
1.0356e+00,-0.94,-1.22
1.0360e+00,-0.98,-0.8
1.0364e+00,-0.98,-1.32
1.0368e+00,-0.88,-0.74
1.0371e+00,-0.98,-1.22
1.0375e+00,-1.06,-0.72
1.0379e+00,-1.06,-1.22
1.0383e+00,-0.96,-0.76
1.0387e+00,-0.94,-1.26
1.0391e+00,-0.9,-0.72
1.0394e+00,-0.98,-1.28
1.0398e+00,-1.12,-0.74
1.0402e+00,-0.96,-1.26
1.0406e+00,-0.96,-0.76
1.0410e+00,-1.04,-1.28
1.0414e+00,-1.04,-0.8
1.0417e+00,-1.02,-1.26
1.0421e+00,-0.98,-0.7
1.0425e+00,-1.06,-1.28
1.0429e+00,-0.92,-0.74
1.0433e+00,-1.04,-1.26
1.0437e+00,-1.06,-0.78
1.0440e+00,-0.98,-1.26
1.0444e+00,-0.98,-0.74
1.0448e+00,-0.98,-1.24
1.0452e+00,-0.96,-0.7
1.0456e+00,-1.16,-1.32
1.0460e+00,-1.04,-0.76
1.0464e+00,-1,-1.28
1.0467e+00,-0.82,-0.74
1.0471e+00,-0.92,-1.22
1.0475e+00,-1.08,-0.66
1.0479e+00,-1.12,-1.26
1.0483e+00,-1,-0.76
1.0487e+00,-0.96,-1.28
1.0490e+00,-0.98,-0.8
1.0494e+00,-1.1,-1.28
1.0498e+00,-1,-0.76
1.0502e+00,-0.94,-1.28
1.0506e+00,-0.88,-0.76
1.0510e+00,-0.98,-1.24
1.0513e+00,-0.92,-0.76
1.0517e+00,-1,-1.26
1.0521e+00,-1.08,-0.78
1.0525e+00,-0.96,-1.26
1.0529e+00,-1.08,-0.8
1.0533e+00,-0.96,-1.24
1.0536e+00,-1.02,-0.72
1.0540e+00,-0.86,-1.26
1.0544e+00,-1.06,-0.74
1.0548e+00,-0.94,-1.26
1.0552e+00,-1.1,-0.76
1.0556e+00,-1.12,-1.3
1.0560e+00,-1.02,-0.76
1.0563e+00,-1.04,-1.26
1.0567e+00,-0.96,-0.76
1.0571e+00,-1.06,-1.28
1.0575e+00,-1.08,-0.78
1.0579e+00,-1.1,-1.26
1.0583e+00,-0.96,-0.74
1.0586e+00,-0.92,-1.3
1.0590e+00,-1.02,-0.76
1.0594e+00,-1.04,-1.26
1.0598e+00,-0.96,-0.78
1.0602e+00,-0.88,-1.26
1.0606e+00,-1.04,-0.76
1.0609e+00,-1.14,-1.26
1.0613e+00,-1.02,-0.76
1.0617e+00,-0.98,-1.26
1.0621e+00,-1.08,-0.76
1.0625e+00,-0.96,-1.24
1.0629e+00,-1.06,-0.76
1.0632e+00,-0.98,-1.24
1.0636e+00,-1.04,-0.7
1.0640e+00,-1.04,-1.26
1.0644e+00,-0.98,-0.72
1.0648e+00,-1.04,-1.22
1.0652e+00,-1.04,-0.74
1.0656e+00,-1.1,-1.3
1.0659e+00,-0.94,-0.76
1.0663e+00,-0.98,-1.28
1.0667e+00,-1,-0.78
1.0671e+00,-1.02,-1.3
1.0675e+00,-0.98,-0.76
1.0679e+00,-0.98,-1.24
1.0682e+00,-0.94,-0.76
1.0686e+00,-1.02,-1.22
1.0690e+00,-1.04,-0.7
1.0694e+00,-1.08,-1.26
1.0698e+00,-0.96,-0.78
1.0702e+00,-0.94,-1.24
1.0705e+00,-1.02,-0.72
1.0709e+00,-1,-1.22
1.0713e+00,-1.08,-0.76
1.0717e+00,-0.96,-1.22
1.0721e+00,-1.1,-0.78
1.0725e+00,-0.94,-1.24
1.0728e+00,-1.08,-0.72
1.0732e+00,-1.12,-1.26
1.0736e+00,-0.92,-0.74
1.0740e+00,-0.88,-1.28
1.0744e+00,-1.02,-0.78
1.0748e+00,-1.1,-1.3
1.0752e+00,-0.98,-0.76
1.0755e+00,-1.1,-1.22
1.0759e+00,-0.98,-0.78
1.0763e+00,-0.98,-1.26
1.0767e+00,-0.92,-0.76
1.0771e+00,-1.12,-1.28
1.0775e+00,-1.02,-0.76
1.0778e+00,-0.96,-1.22
1.0782e+00,-1.06,-0.78
1.0786e+00,-1.02,-1.26
1.0790e+00,-1.02,-0.74
1.0794e+00,-1.04,-1.28
1.0798e+00,-0.92,-0.72
1.0801e+00,-0.98,-1.26
1.0805e+00,-1.04,-0.76
1.0809e+00,-1.16,-1.26
1.0813e+00,-0.98,-0.76
1.0817e+00,-1.02,-1.26
1.0821e+00,-0.96,-0.74
1.0825e+00,-0.92,-1.3
1.0828e+00,-1.02,-0.78
1.0832e+00,-1,-1.26
1.0836e+00,-0.9,-0.72
1.0840e+00,-0.92,-1.28
1.0844e+00,-0.88,-0.72
1.0848e+00,-1.12,-1.26
1.0851e+00,-1.04,-0.76
1.0855e+00,-0.88,-1.24
1.0859e+00,-0.96,-0.74
1.0863e+00,-0.96,-1.3
1.0867e+00,-1,-0.7
1.0871e+00,-0.9,-1.22
1.0874e+00,-0.98,-0.76
1.0878e+00,-0.98,-1.22
1.0882e+00,-1,-0.72
1.0886e+00,-1.1,-1.26
1.0890e+00,-1.14,-0.72
1.0894e+00,-0.96,-1.26
1.0897e+00,-0.96,-0.7
1.0901e+00,-0.98,-1.34
1.0905e+00,-1.12,-0.74
1.0909e+00,-1.06,-1.28
1.0913e+00,-1,-0.74
1.0917e+00,-0.94,-1.3
1.0921e+00,-0.92,-0.72
1.0924e+00,-1.16,-1.36
1.0928e+00,-0.96,-0.74
1.0932e+00,-0.96,-1.28
1.0936e+00,-0.92,-0.78
1.0940e+00,-1.12,-1.24
1.0944e+00,-1.14,-0.68
1.0947e+00,-1.02,-1.26
1.0951e+00,-1.06,-0.76
1.0955e+00,-0.92,-1.26
1.0959e+00,-0.94,-0.76
1.0963e+00,-1,-1.24
1.0967e+00,-0.96,-0.72
1.0970e+00,-1.02,-1.26
1.0974e+00,-1.06,-0.76
1.0978e+00,-1.02,-1.3
1.0982e+00,-0.96,-0.68
1.0986e+00,-0.98,-1.28
1.0990e+00,-1.08,-0.68
1.0993e+00,-0.96,-1.24
1.0997e+00,-1.04,-0.76
1.1001e+00,-0.92,-1.28
1.1005e+00,-1.12,-0.7
1.1009e+00,-0.98,-1.24
1.1013e+00,-0.96,-0.74
1.1017e+00,-0.88,-1.24
1.1020e+00,-1.02,-0.72
1.1024e+00,-1.02,-1.26
1.1028e+00,-0.94,-0.74
1.1032e+00,-0.9,-1.22
1.1036e+00,-0.96,-0.76
1.1040e+00,-1.04,-1.22
1.1043e+00,-0.96,-0.76
1.1047e+00,-1.06,-1.22
1.1051e+00,-0.92,-0.76
1.1055e+00,-1.02,-1.28
1.1059e+00,-1,-0.74
1.1063e+00,-1.12,-1.24
1.1066e+00,-1.06,-0.74
1.1070e+00,-1,-1.22
1.1074e+00,-0.92,-0.76
1.1078e+00,-0.98,-1.24
1.1082e+00,-1.1,-0.74
1.1086e+00,-1,-1.3
1.1089e+00,-0.92,-0.78
1.1093e+00,-0.96,-1.26
1.1097e+00,-1.08,-0.76
1.1101e+00,-1.04,-1.28
1.1105e+00,-1.06,-0.72
1.1109e+00,-1.04,-1.22
1.1113e+00,-0.96,-0.72
1.1116e+00,-0.88,-1.3
1.1120e+00,-1.02,-0.8
1.1124e+00,-0.96,-1.24
1.1128e+00,-0.94,-0.76
1.1132e+00,-0.92,-1.26
1.1136e+00,-0.92,-0.76
1.1139e+00,-0.88,-1.28
1.1143e+00,-1.04,-0.8
1.1147e+00,-0.96,-1.22
1.1151e+00,-1,-0.78
1.1155e+00,-0.92,-1.24
1.1159e+00,-1.06,-0.8
1.1162e+00,-1.1,-1.24
1.1166e+00,-1,-0.72
1.1170e+00,-1.04,-1.28
1.1174e+00,-0.9,-0.8
1.1178e+00,-1.1,-1.3
1.1182e+00,-0.92,-0.78
1.1185e+00,-0.98,-1.22
1.1189e+00,-1.06,-0.72
1.1193e+00,-0.94,-1.24
1.1197e+00,-1.06,-0.78
1.1201e+00,-1.04,-1.22
1.1205e+00,-1.12,-0.78
1.1209e+00,-0.98,-1.22
1.1212e+00,-1.1,-0.8
1.1216e+00,-0.86,-1.24
1.1220e+00,-0.98,-0.74
1.1224e+00,-0.9,-1.28
1.1228e+00,-1,-0.74
1.1232e+00,-0.96,-1.26
1.1235e+00,-1.06,-0.8
1.1239e+00,-1.08,-1.24
1.1243e+00,-0.96,-0.78
1.1247e+00,-1.06,-1.28
1.1251e+00,-0.98,-0.74
1.1255e+00,-0.96,-1.3
1.1258e+00,-0.94,-0.72
1.1262e+00,-0.96,-1.28
1.1266e+00,-0.88,-0.76
1.1270e+00,-0.92,-1.24
1.1274e+00,-0.98,-0.76
1.1278e+00,-1,-1.28
1.1281e+00,-0.94,-0.78
1.1285e+00,-1.08,-1.28
1.1289e+00,-1.1,-0.7
1.1293e+00,-1.02,-1.26
1.1297e+00,-0.94,-0.8
1.1301e+00,-0.98,-1.24
1.1305e+00,-0.96,-0.78
1.1308e+00,-1.04,-1.24
1.1312e+00,-0.96,-0.74
1.1316e+00,-0.98,-1.22
1.1320e+00,-1.08,-0.76
1.1324e+00,-1.06,-1.24
1.1328e+00,-1.06,-0.74
1.1331e+00,-1.14,-1.26
1.1335e+00,-1.1,-0.8
1.1339e+00,-0.96,-1.26
1.1343e+00,-1.14,-0.78
1.1347e+00,-0.94,-1.28
1.1351e+00,-0.96,-0.74
1.1354e+00,-1.06,-1.22
1.1358e+00,-1,-0.74
1.1362e+00,-1.04,-1.26
1.1366e+00,-0.9,-0.74
1.1370e+00,-0.98,-1.26
1.1374e+00,-1.06,-0.78
1.1377e+00,-1.02,-1.3
1.1381e+00,-1.08,-0.72
1.1385e+00,-0.98,-1.28
1.1389e+00,-1.06,-0.78
1.1393e+00,-1.08,-1.26
1.1397e+00,-1.06,-0.72
1.1401e+00,-1.02,-1.26
1.1404e+00,-1.08,-0.78
1.1408e+00,-0.96,-1.34
1.1412e+00,-1.02,-0.76
1.1416e+00,-1.1,-1.3
1.1420e+00,-0.98,-0.74
1.1424e+00,-1,-1.28
1.1427e+00,-0.94,-0.78
1.1431e+00,-1.08,-1.3
1.1435e+00,-1.08,-0.74
1.1439e+00,-1,-1.3
1.1443e+00,-1.02,-0.72
1.1447e+00,-0.98,-1.28
1.1450e+00,-1.08,-0.7
1.1454e+00,-1.04,-1.22
1.1458e+00,-0.94,-0.78
1.1462e+00,-1.04,-1.26
1.1466e+00,-0.96,-0.82
1.1470e+00,-0.92,-1.26
1.1474e+00,-0.9,-0.78
1.1477e+00,-1.1,-1.24
1.1481e+00,-0.98,-0.78
1.1485e+00,-0.98,-1.24
1.1489e+00,-0.96,-0.76
1.1493e+00,-0.98,-1.28
1.1497e+00,-0.98,-0.76
1.1500e+00,-0.88,-1.26
1.1504e+00,-0.9,-0.74
1.1508e+00,-1.08,-1.28
1.1512e+00,-1,-0.78
1.1516e+00,-1.14,-1.28
1.1520e+00,-0.96,-0.76
1.1523e+00,-1,-1.22
1.1527e+00,-1.02,-0.72
1.1531e+00,-0.98,-1.26
1.1535e+00,-0.98,-0.74
1.1539e+00,-1.06,-1.26
1.1543e+00,-0.96,-0.76
1.1546e+00,-0.94,-1.26
1.1550e+00,-1.06,-0.8
1.1554e+00,-1.16,-1.24
1.1558e+00,-1,-0.78
1.1562e+00,-0.94,-1.24
1.1566e+00,-0.9,-0.72
1.1570e+00,-1.04,-1.26
1.1573e+00,-0.98,-0.76
1.1577e+00,-1.1,-1.3
1.1581e+00,-1,-0.76
1.1585e+00,-0.98,-1.26
1.1589e+00,-0.94,-0.76
1.1593e+00,-0.88,-1.24
1.1596e+00,-1.02,-0.76
1.1600e+00,-0.96,-1.24
1.1604e+00,-1.02,-0.76
1.1608e+00,-1.04,-1.22
1.1612e+00,-1.06,-0.72
1.1616e+00,-0.96,-1.26
1.1619e+00,-1.12,-0.78
1.1623e+00,-0.86,-1.26
1.1627e+00,-1.02,-0.78
1.1631e+00,-1.04,-1.28
1.1635e+00,-1,-0.78
1.1639e+00,-1.04,-1.24
1.1642e+00,-1.1,-0.76
1.1646e+00,-0.96,-1.26
1.1650e+00,-1.04,-0.8
1.1654e+00,-1.12,-1.3
1.1658e+00,-1,-0.76
1.1662e+00,-0.94,-1.24
1.1666e+00,-1.06,-0.72
1.1669e+00,-1.02,-1.22
1.1673e+00,-0.92,-0.76
1.1677e+00,-1.08,-1.24
1.1681e+00,-1,-0.74
1.1685e+00,-0.92,-1.28
1.1689e+00,-0.98,-0.76
1.1692e+00,-1.2,-1.22
1.1696e+00,-0.88,-0.74
1.1700e+00,-0.88,-1.24
1.1704e+00,-1,-0.74
1.1708e+00,-1.04,-1.22
1.1712e+00,-1.06,-0.76
1.1715e+00,-1,-1.24
1.1719e+00,-0.98,-0.74
1.1723e+00,-1,-1.22
1.1727e+00,-1,-0.8
1.1731e+00,-1.04,-1.3
1.1735e+00,-0.88,-0.66
1.1738e+00,-1.04,-1.34
1.1742e+00,-0.98,-0.76
1.1746e+00,-0.92,-1.24
1.1750e+00,-1,-0.76
1.1754e+00,-1.08,-1.28
1.1758e+00,-1,-0.78
1.1762e+00,-1.02,-1.22
1.1765e+00,-1,-0.78
1.1769e+00,-0.98,-1.24
1.1773e+00,-1.16,-0.74
1.1777e+00,-0.88,-1.28
1.1781e+00,-1,-0.72
1.1785e+00,-1,-1.32
1.1788e+00,-1.08,-0.78
1.1792e+00,-1.04,-1.26
1.1796e+00,-1,-0.74
1.1800e+00,-0.96,-1.26
1.1804e+00,-1,-0.7
1.1808e+00,-0.96,-1.22
1.1811e+00,-1.06,-0.74
1.1815e+00,-0.84,-1.24
1.1819e+00,-0.96,-0.76
1.1823e+00,-1,-1.28
1.1827e+00,-1.06,-0.76
1.1831e+00,-1.18,-1.32
1.1834e+00,-0.98,-0.78
1.1838e+00,-1,-1.26
1.1842e+00,-1.02,-0.78
1.1846e+00,-1.04,-1.24
1.1850e+00,-1.06,-0.76
1.1854e+00,-1.08,-1.22
1.1858e+00,-0.94,-0.76
1.1861e+00,-0.98,-1.28
1.1865e+00,-1.18,-0.72
1.1869e+00,-1.1,-1.24
1.1873e+00,-1.02,-0.76
1.1877e+00,-0.98,-1.28
1.1881e+00,-0.96,-0.74
1.1884e+00,-1.02,-1.26
1.1888e+00,-1.12,-0.8
1.1892e+00,-0.9,-1.26
1.1896e+00,-1,-0.78
1.1900e+00,-1.02,-1.26
1.1904e+00,-1.04,-0.8
1.1907e+00,-1.12,-1.32
1.1911e+00,-1.04,-0.78
1.1915e+00,-1.02,-1.28
1.1919e+00,-0.96,-0.8
1.1923e+00,-0.88,-1.26
1.1927e+00,-1.06,-0.78
1.1930e+00,-0.9,-1.26
1.1934e+00,-1,-0.74
1.1938e+00,-1,-1.24
1.1942e+00,-0.96,-0.76
1.1946e+00,-1.04,-1.24
1.1950e+00,-1.08,-0.72
1.1954e+00,-1.02,-1.2
1.1957e+00,-0.94,-0.74
1.1961e+00,-0.98,-1.28
1.1965e+00,-0.9,-0.74
1.1969e+00,-0.98,-1.28
1.1973e+00,-1,-0.78
1.1977e+00,-0.88,-1.22
1.1980e+00,-0.94,-0.78
1.1984e+00,-1,-1.3
1.1988e+00,-0.92,-0.8
1.1992e+00,-1.08,-1.24
1.1996e+00,-0.94,-0.78
1.2000e+00,-1.02,-1.26
1.2003e+00,-1.08,-0.74
1.2007e+00,-1.06,-1.26
1.2011e+00,-1.1,-0.74
1.2015e+00,-1,-1.26
1.2019e+00,-0.98,-0.8
1.2023e+00,-0.96,-1.26
1.2027e+00,-1.08,-0.76
1.2030e+00,-1.04,-1.26
1.2034e+00,-0.98,-0.78
1.2038e+00,-1.02,-1.26
1.2042e+00,-1.02,-0.76
1.2046e+00,-0.92,-1.22
1.2050e+00,-1.06,-0.78
1.2053e+00,-0.96,-1.3
1.2057e+00,-1,-0.76
1.2061e+00,-0.96,-1.22
1.2065e+00,-1.1,-0.76
1.2069e+00,-0.98,-1.28
1.2073e+00,-0.94,-0.76
1.2076e+00,-1.04,-1.26
1.2080e+00,-1,-0.78
1.2084e+00,-1.08,-1.26
1.2088e+00,-0.98,-0.74
1.2092e+00,-0.9,-1.22
1.2096e+00,-1.04,-0.74
1.2099e+00,-1.14,-1.24
1.2103e+00,-1.04,-0.76
1.2107e+00,-1.06,-1.24
1.2111e+00,-1.06,-0.8
1.2115e+00,-0.88,-1.26
1.2119e+00,-1.02,-0.74
1.2123e+00,-1.04,-1.22
1.2126e+00,-1.04,-0.72
1.2130e+00,-0.9,-1.26
1.2134e+00,-0.9,-0.78
1.2138e+00,-0.98,-1.26
1.2142e+00,-0.98,-0.74
1.2146e+00,-1.04,-1.28
1.2149e+00,-0.92,-0.76
1.2153e+00,-0.96,-1.28
1.2157e+00,-1.1,-0.72
1.2161e+00,-1.1,-1.3
1.2165e+00,-1.04,-0.72
1.2169e+00,-0.92,-1.28
1.2172e+00,-0.98,-0.78
1.2176e+00,-1,-1.22
1.2180e+00,-1.14,-0.76
1.2184e+00,-0.98,-1.26
1.2188e+00,-0.92,-0.78
1.2192e+00,-1.08,-1.26
1.2195e+00,-0.98,-0.78
1.2199e+00,-1,-1.3
1.2203e+00,-0.96,-0.72
1.2207e+00,-1,-1.28
1.2211e+00,-0.96,-0.74
1.2215e+00,-1,-1.22
1.2219e+00,-1.1,-0.76
1.2222e+00,-1.04,-1.26
1.2226e+00,-1.04,-0.8
1.2230e+00,-0.86,-1.22
1.2234e+00,-1.1,-0.74
1.2238e+00,-1.02,-1.3
1.2242e+00,-1.02,-0.72
1.2245e+00,-0.96,-1.24
1.2249e+00,-1,-0.72
1.2253e+00,-0.98,-1.24
1.2257e+00,-1.08,-0.78
1.2261e+00,-1.1,-1.28
1.2265e+00,-1.08,-0.78
1.2268e+00,-1.06,-1.22
1.2272e+00,-1.02,-0.72
1.2276e+00,-0.88,-1.22
1.2280e+00,-1,-0.72
1.2284e+00,-0.96,-1.22
1.2288e+00,-0.98,-0.78
1.2291e+00,-1.06,-1.3
1.2295e+00,-0.94,-0.74
1.2299e+00,-1.02,-1.24
1.2303e+00,-1.06,-0.78
1.2307e+00,-0.9,-1.22
1.2311e+00,-0.98,-0.72
1.2315e+00,-0.92,-1.34
1.2318e+00,-1.02,-0.76
1.2322e+00,-1.02,-1.22
1.2326e+00,-0.94,-0.76
1.2330e+00,-0.98,-1.24
1.2334e+00,-0.96,-0.66
1.2338e+00,-1.06,-1.32
1.2341e+00,-0.94,-0.74
1.2345e+00,-1.06,-1.28
1.2349e+00,-0.9,-0.7
1.2353e+00,-0.92,-1.28
1.2357e+00,-1.14,-0.76
1.2361e+00,-1.12,-1.26
1.2364e+00,-0.98,-0.74
1.2368e+00,-0.96,-1.24
1.2372e+00,-1.06,-0.76
1.2376e+00,-1.06,-1.3
1.2380e+00,-0.92,-0.74
1.2384e+00,-0.98,-1.26
1.2387e+00,-1.08,-0.76
1.2391e+00,-1.02,-1.26
1.2395e+00,-0.96,-0.76
1.2399e+00,-1.06,-1.26
1.2403e+00,-1.16,-0.74
1.2407e+00,-0.96,-1.26
1.2411e+00,-0.92,-0.76
1.2414e+00,-1.14,-1.28
1.2418e+00,-1.08,-0.72
1.2422e+00,-0.98,-1.3
1.2426e+00,-0.9,-0.8
1.2430e+00,-1.02,-1.24
1.2434e+00,-1.08,-0.78
1.2437e+00,-1.18,-1.34
1.2441e+00,-1,-0.76
1.2445e+00,-0.98,-1.26
1.2449e+00,-0.94,-0.74
1.2453e+00,-1.08,-1.24
1.2457e+00,-1.08,-0.76
1.2460e+00,-0.98,-1.26
1.2464e+00,-0.96,-0.76
1.2468e+00,-1.04,-1.28
1.2472e+00,-1.04,-0.76
1.2476e+00,-1.06,-1.24
1.2480e+00,-0.96,-0.74
1.2483e+00,-1.02,-1.22
1.2487e+00,-0.96,-0.78
1.2491e+00,-1.02,-1.28
1.2495e+00,-1,-0.7
1.2499e+00,-1,-1.26
1.2503e+00,-1.02,-0.76
1.2507e+00,-0.98,-1.28
1.2510e+00,-1.14,-0.72
1.2514e+00,-0.94,-1.26
1.2518e+00,-1,-0.72
1.2522e+00,-1.02,-1.24
1.2526e+00,-1.06,-0.76
1.2530e+00,-1.04,-1.22
1.2533e+00,-1.1,-0.8
1.2537e+00,-0.98,-1.24
1.2541e+00,-0.9,-0.78
1.2545e+00,-1.08,-1.28
1.2549e+00,-1.02,-0.78
1.2553e+00,-1,-1.24
1.2556e+00,-1.06,-0.76
1.2560e+00,-0.9,-1.26
1.2564e+00,-0.82,-0.74
1.2568e+00,-0.94,-1.32
1.2572e+00,-1.04,-0.78
1.2576e+00,-1.06,-1.26
1.2579e+00,-1.06,-0.78
1.2583e+00,-0.98,-1.26
1.2587e+00,-0.96,-0.76
1.2591e+00,-1.04,-1.26
1.2595e+00,-0.96,-0.76
1.2599e+00,-1.1,-1.24
1.2603e+00,-0.98,-0.76
1.2606e+00,-0.9,-1.24
1.2610e+00,-1.06,-0.76
1.2614e+00,-1.02,-1.22
1.2618e+00,-1.06,-0.76
1.2622e+00,-0.94,-1.22
1.2626e+00,-0.98,-0.76
1.2629e+00,-0.96,-1.22
1.2633e+00,-1.08,-0.72
1.2637e+00,-1.08,-1.24
1.2641e+00,-1,-0.78
1.2645e+00,-0.98,-1.28
1.2649e+00,-1,-0.76
1.2652e+00,-1,-1.32
1.2656e+00,-1,-0.66
1.2660e+00,-1,-1.26
1.2664e+00,-0.96,-0.78
1.2668e+00,-1.1,-1.24
1.2672e+00,-1.04,-0.74
1.2676e+00,-1.08,-1.28
1.2679e+00,-1,-0.74
1.2683e+00,-0.98,-1.28
1.2687e+00,-1.1,-0.78
1.2691e+00,-1.06,-1.28
1.2695e+00,-1.12,-0.68
1.2699e+00,-1.04,-1.22
1.2702e+00,-1.02,-0.78
1.2706e+00,-1.14,-1.24
1.2710e+00,-0.88,-0.78
1.2714e+00,-1.14,-1.3
1.2718e+00,-0.96,-0.8
1.2722e+00,-0.94,-1.3
1.2725e+00,-0.94,-0.74
1.2729e+00,-0.96,-1.3
1.2733e+00,-1.12,-0.7
1.2737e+00,-1.02,-1.34
1.2741e+00,-0.98,-0.74
1.2745e+00,-1,-1.24
1.2748e+00,-0.94,-0.76
1.2752e+00,-0.94,-1.3
1.2756e+00,-0.98,-0.78
1.2760e+00,-0.98,-1.26
1.2764e+00,-0.98,-0.68
1.2768e+00,-1,-1.24
1.2772e+00,-1.12,-0.76
1.2775e+00,-0.92,-1.22
1.2779e+00,-0.96,-0.74
1.2783e+00,-0.96,-1.24
1.2787e+00,-0.96,-0.72
1.2791e+00,-1.04,-1.24
1.2795e+00,-1.08,-0.76
1.2798e+00,-0.98,-1.2
1.2802e+00,-1,-0.7
1.2806e+00,-0.96,-1.3
1.2810e+00,-0.96,-0.78
1.2814e+00,-1,-1.28
1.2818e+00,-1.04,-0.7
1.2821e+00,-0.98,-1.28
1.2825e+00,-1.04,-0.78
1.2829e+00,-1.16,-1.26
1.2833e+00,-1.02,-0.76
1.2837e+00,-1.02,-1.26
1.2841e+00,-0.8,-0.76
1.2844e+00,-1.08,-1.24
1.2848e+00,-1,-0.76
1.2852e+00,-0.9,-1.26
1.2856e+00,-0.98,-0.76
1.2860e+00,-1.02,-1.24
1.2864e+00,-1.12,-0.76
1.2868e+00,-1.02,-1.26
1.2871e+00,-1.14,-0.72
1.2875e+00,-1.08,-1.26
1.2879e+00,-1.04,-0.76
1.2883e+00,-1.02,-1.24
1.2887e+00,-1.04,-0.78
1.2891e+00,-1.08,-1.3
1.2894e+00,-0.98,-0.78
1.2898e+00,-1.02,-1.26
1.2902e+00,-1.04,-0.76
1.2906e+00,-1.1,-1.26
1.2910e+00,-1.14,-0.78
1.2914e+00,-1,-1.28
1.2917e+00,-0.98,-0.78
1.2921e+00,-1,-1.3
1.2925e+00,-1.04,-0.76
1.2929e+00,-1.04,-1.28
1.2933e+00,-0.94,-0.74
1.2937e+00,-1,-1.24
1.2940e+00,-1.04,-0.78
1.2944e+00,-0.96,-1.22
1.2948e+00,-1.12,-0.7
1.2952e+00,-0.9,-1.26
1.2956e+00,-1,-0.72
1.2960e+00,-0.94,-1.24
1.2964e+00,-1.02,-0.76
1.2967e+00,-1.06,-1.24
1.2971e+00,-0.96,-0.76
1.2975e+00,-1.12,-1.28
1.2979e+00,-0.92,-0.76
1.2983e+00,-0.94,-1.24
1.2987e+00,-1.08,-0.78
1.2990e+00,-0.94,-1.3
1.2994e+00,-0.98,-0.76
1.2998e+00,-1.04,-1.26
1.3002e+00,-1,-0.74
1.3006e+00,-0.98,-1.3
1.3010e+00,-0.98,-0.76
1.3013e+00,-0.98,-1.28
1.3017e+00,-1.04,-0.76
1.3021e+00,-1,-1.26
1.3025e+00,-1.04,-0.78
1.3029e+00,-0.98,-1.26
1.3033e+00,-0.96,-0.74
1.3036e+00,-0.94,-1.26
1.3040e+00,-0.92,-0.74
1.3044e+00,-1.12,-1.26
1.3048e+00,-1.02,-0.72
1.3052e+00,-1.04,-1.24
1.3056e+00,-0.92,-0.76
1.3060e+00,-0.94,-1.28
1.3063e+00,-0.88,-0.74
1.3067e+00,-1.06,-1.28
1.3071e+00,-1.06,-0.82
1.3075e+00,-0.88,-1.24
1.3079e+00,-0.98,-0.76
1.3083e+00,-1.02,-1.28
1.3086e+00,-1.08,-0.72
1.3090e+00,-0.98,-1.24
1.3094e+00,-1.02,-0.78
1.3098e+00,-0.96,-1.24
1.3102e+00,-1.16,-0.76
1.3106e+00,-1.06,-1.28
1.3109e+00,-1.02,-0.8
1.3113e+00,-0.98,-1.22
1.3117e+00,-1.1,-0.78
1.3121e+00,-1.02,-1.24
1.3125e+00,-1.08,-0.74
1.3129e+00,-0.94,-1.24
1.3132e+00,-0.98,-0.76
1.3136e+00,-0.98,-1.24
1.3140e+00,-1.1,-0.8
1.3144e+00,-1,-1.24
1.3148e+00,-0.92,-0.76
1.3152e+00,-1.02,-1.24
1.3156e+00,-1,-0.74
1.3159e+00,-1.04,-1.24
1.3163e+00,-1.02,-0.8
1.3167e+00,-1.02,-1.26
1.3171e+00,-1.04,-0.8
1.3175e+00,-0.92,-1.24
1.3179e+00,-1.04,-0.7
1.3182e+00,-1.04,-1.26
1.3186e+00,-1.02,-0.76
1.3190e+00,-0.92,-1.26
1.3194e+00,-1.02,-0.78
1.3198e+00,-1.02,-1.26
1.3202e+00,-0.94,-0.76
1.3205e+00,-0.92,-1.26
1.3209e+00,-1.04,-0.72
1.3213e+00,-0.9,-1.26
1.3217e+00,-1.06,-0.76
1.3221e+00,-1.02,-1.26
1.3225e+00,-1.06,-0.76
1.3228e+00,-0.96,-1.26
1.3232e+00,-1.06,-0.78
1.3236e+00,-1.02,-1.3
1.3240e+00,-1,-0.72
1.3244e+00,-1.14,-1.28
1.3248e+00,-0.98,-0.8
1.3252e+00,-1.06,-1.3
1.3255e+00,-1.14,-0.8
1.3259e+00,-1.04,-1.24
1.3263e+00,-1.1,-0.76
1.3267e+00,-1.06,-1.26
1.3271e+00,-1.06,-0.78
1.3275e+00,-1.12,-1.26
1.3278e+00,-1,-0.78
1.3282e+00,-1.12,-1.26
1.3286e+00,-1,-0.78
1.3290e+00,-0.9,-1.24
1.3294e+00,-0.94,-0.78
1.3298e+00,-1.06,-1.26
1.3301e+00,-1.14,-0.76
1.3305e+00,-1,-1.28
1.3309e+00,-1,-0.8
1.3313e+00,-0.96,-1.26
1.3317e+00,-0.92,-0.78
1.3321e+00,-0.96,-1.26
1.3325e+00,-1.04,-0.74
1.3328e+00,-0.94,-1.3
1.3332e+00,-1.1,-0.72
1.3336e+00,-0.96,-1.24
1.3340e+00,-1.1,-0.78
1.3344e+00,-1.08,-1.24
1.3348e+00,-0.96,-0.74
1.3351e+00,-0.88,-1.24
1.3355e+00,-0.98,-0.74
1.3359e+00,-1.14,-1.3
1.3363e+00,-0.96,-0.74
1.3367e+00,-1,-1.22
1.3371e+00,-1,-0.76
1.3374e+00,-1.04,-1.26
1.3378e+00,-1.02,-0.74
1.3382e+00,-0.92,-1.26
1.3386e+00,-0.94,-0.78
1.3390e+00,-1,-1.32
1.3394e+00,-0.98,-0.8
1.3397e+00,-1.06,-1.24
1.3401e+00,-1.04,-0.72
1.3405e+00,-1,-1.26
1.3409e+00,-1.02,-0.76
1.3413e+00,-0.98,-1.3
1.3417e+00,-1.18,-0.8
1.3421e+00,-1.02,-1.24
1.3424e+00,-1.08,-0.76
1.3428e+00,-1.08,-1.26
1.3432e+00,-0.96,-0.76
1.3436e+00,-1.04,-1.3
1.3440e+00,-1.1,-0.78
1.3444e+00,-1,-1.2
1.3447e+00,-1,-0.74
1.3451e+00,-1.04,-1.22
1.3455e+00,-1.1,-0.78
1.3459e+00,-0.96,-1.22
1.3463e+00,-0.96,-0.78
1.3467e+00,-1.06,-1.32
1.3470e+00,-0.94,-0.76
1.3474e+00,-0.96,-1.26
1.3478e+00,-1.04,-0.78
1.3482e+00,-1.06,-1.24
1.3486e+00,-0.98,-0.7
1.3490e+00,-1.02,-1.22
1.3493e+00,-1,-0.78
1.3497e+00,-1.12,-1.24
1.3501e+00,-1.06,-0.76
1.3505e+00,-0.98,-1.3
1.3509e+00,-1.06,-0.74
1.3513e+00,-1.04,-1.26
1.3517e+00,-1.2,-0.78
1.3520e+00,-0.94,-1.28
1.3524e+00,-0.9,-0.76
1.3528e+00,-0.98,-1.24
1.3532e+00,-1.2,-0.74
1.3536e+00,-1.04,-1.26
1.3540e+00,-0.92,-0.76
1.3543e+00,-0.96,-1.26
1.3547e+00,-0.92,-0.76
1.3551e+00,-0.96,-1.22
1.3555e+00,-1.02,-0.8
1.3559e+00,-0.98,-1.26
1.3563e+00,-1.04,-0.78
1.3566e+00,-1.1,-1.22
1.3570e+00,-0.98,-0.78
1.3574e+00,-0.96,-1.24
1.3578e+00,-0.9,-0.72
1.3582e+00,-1.1,-1.26
1.3586e+00,-0.96,-0.82
1.3589e+00,-1.04,-1.26
1.3593e+00,-1.16,-0.74
1.3597e+00,-0.94,-1.24
1.3601e+00,-1.06,-0.74
1.3605e+00,-0.92,-1.22
1.3609e+00,-0.94,-0.72
1.3613e+00,-1.04,-1.26
1.3616e+00,-1.12,-0.74
1.3620e+00,-1.02,-1.24
1.3624e+00,-1.04,-0.78
1.3628e+00,-1,-1.26
1.3632e+00,-1.04,-0.78
1.3636e+00,-1.04,-1.26
1.3639e+00,-1.04,-0.74
1.3643e+00,-1,-1.28
1.3647e+00,-1,-0.8
1.3651e+00,-1.02,-1.24
1.3655e+00,-0.92,-0.76
1.3659e+00,-1.02,-1.22
1.3662e+00,-0.94,-0.8
1.3666e+00,-0.94,-1.24
1.3670e+00,-1.08,-0.72
1.3674e+00,-1.02,-1.24
1.3678e+00,-1.02,-0.76
1.3682e+00,-1,-1.26
1.3685e+00,-0.94,-0.78
1.3689e+00,-0.98,-1.28
1.3693e+00,-1.04,-0.76
1.3697e+00,-0.94,-1.26
1.3701e+00,-0.96,-0.78
1.3705e+00,-0.88,-1.24
1.3709e+00,-0.96,-0.66
1.3712e+00,-0.98,-1.26
1.3716e+00,-1,-0.78
1.3720e+00,-1,-1.26
1.3724e+00,-1.02,-0.8
1.3728e+00,-0.98,-1.24
1.3732e+00,-1.12,-0.8
1.3735e+00,-1.02,-1.22
1.3739e+00,-0.84,-0.76
1.3743e+00,-0.98,-1.22
1.3747e+00,-1,-0.72
1.3751e+00,-0.98,-1.2
1.3755e+00,-0.98,-0.74
1.3758e+00,-1.16,-1.28
1.3762e+00,-0.98,-0.76
1.3766e+00,-1.04,-1.24
1.3770e+00,-0.96,-0.78
1.3774e+00,-1,-1.26
1.3778e+00,-0.94,-0.78
1.3781e+00,-0.92,-1.22
1.3785e+00,-1.02,-0.78
1.3789e+00,-1.12,-1.28
1.3793e+00,-1.06,-0.74
1.3797e+00,-1.08,-1.22
1.3801e+00,-0.98,-0.68
1.3805e+00,-1.08,-1.22
1.3808e+00,-1.04,-0.8
1.3812e+00,-1.06,-1.26
1.3816e+00,-0.98,-0.74
1.3820e+00,-1.04,-1.24
1.3824e+00,-0.96,-0.76
1.3828e+00,-1.02,-1.38
1.3831e+00,-0.92,-0.76
1.3835e+00,-1.06,-1.22
1.3839e+00,-0.94,-0.76
1.3843e+00,-0.98,-1.28
1.3847e+00,-1.02,-0.82
1.3851e+00,-1,-1.26
1.3854e+00,-1.14,-0.78
1.3858e+00,-1.04,-1.28
1.3862e+00,-0.92,-0.76
1.3866e+00,-1,-1.22
1.3870e+00,-1.1,-0.72
1.3874e+00,-0.94,-1.26
1.3877e+00,-0.92,-0.72
1.3881e+00,-0.94,-1.26
1.3885e+00,-0.98,-0.78
1.3889e+00,-1,-1.28
1.3893e+00,-0.94,-0.72
1.3897e+00,-0.94,-1.28
1.3901e+00,-0.9,-0.78
1.3904e+00,-0.96,-1.24
1.3908e+00,-1.08,-0.78
1.3912e+00,-1.06,-1.22
1.3916e+00,-1,-0.78
1.3920e+00,-0.96,-1.22
1.3924e+00,-1.02,-0.76
1.3927e+00,-1.02,-1.2
1.3931e+00,-1,-0.76
1.3935e+00,-1.06,-1.26
1.3939e+00,-1.02,-0.74
1.3943e+00,-1,-1.24
1.3947e+00,-0.96,-0.72
1.3950e+00,-1.14,-1.24
1.3954e+00,-0.96,-0.68
1.3958e+00,-1.04,-1.3
1.3962e+00,-1.06,-0.76
1.3966e+00,-1.04,-1.26
1.3970e+00,-1.06,-0.78
1.3974e+00,-1.14,-1.24
1.3977e+00,-1.02,-0.78
1.3981e+00,-1.02,-1.24
1.3985e+00,-1.02,-0.76
1.3989e+00,-1.06,-1.26
1.3993e+00,-0.94,-0.76
1.3997e+00,-0.98,-1.26
1.4000e+00,-1.08,-0.78
1.4004e+00,-1.06,-1.24
1.4008e+00,-0.98,-0.76
1.4012e+00,-1,-1.22
1.4016e+00,-0.96,-0.76
1.4020e+00,-1.06,-1.26
1.4023e+00,-0.9,-0.78
1.4027e+00,-1,-1.28
1.4031e+00,-0.94,-0.7
1.4035e+00,-0.92,-1.22
1.4039e+00,-1.04,-0.76
1.4043e+00,-1.08,-1.26
1.4046e+00,-1.1,-0.76
1.4050e+00,-0.92,-1.26
1.4054e+00,-1.02,-0.74
1.4058e+00,-1,-1.22
1.4062e+00,-0.94,-0.74
1.4066e+00,-1.1,-1.22
1.4070e+00,-0.94,-0.76
1.4073e+00,-1.08,-1.3
1.4077e+00,-0.98,-0.76
1.4081e+00,-1.1,-1.22
1.4085e+00,-1.04,-0.76
1.4089e+00,-1.2,-1.26
1.4093e+00,-1,-0.76
1.4096e+00,-0.96,-1.26
1.4100e+00,-0.96,-0.76
1.4104e+00,-0.96,-1.26
1.4108e+00,-1.06,-0.66
1.4112e+00,-1.1,-1.3
1.4116e+00,-0.9,-0.72
1.4119e+00,-0.92,-1.22
1.4123e+00,-0.94,-0.78
1.4127e+00,-1.12,-1.22
1.4131e+00,-0.92,-0.72
1.4135e+00,-1.04,-1.26
1.4139e+00,-1.02,-0.72
1.4142e+00,-1,-1.24
1.4146e+00,-0.98,-0.74
1.4150e+00,-1.06,-1.28
1.4154e+00,-1.18,-0.72
1.4158e+00,-1.04,-1.28
1.4162e+00,-1,-0.74
1.4166e+00,-1.04,-1.22
1.4169e+00,-1,-0.74
1.4173e+00,-0.96,-1.22
1.4177e+00,-1.08,-0.8
1.4181e+00,-1,-1.2
1.4185e+00,-1.1,-0.7
1.4189e+00,-1.06,-1.24
1.4192e+00,-0.86,-0.76
1.4196e+00,-1.08,-1.28
1.4200e+00,-0.92,-0.72
1.4204e+00,-1,-1.28
1.4208e+00,-0.96,-0.76
1.4212e+00,-0.98,-1.26
1.4215e+00,-1,-0.78
1.4219e+00,-1.04,-1.24
1.4223e+00,-1.08,-0.78
1.4227e+00,-1.02,-1.24
1.4231e+00,-0.92,-0.74
1.4235e+00,-0.98,-1.24
1.4238e+00,-0.96,-0.76
1.4242e+00,-1.02,-1.26
1.4246e+00,-1.14,-0.78
1.4250e+00,-0.84,-1.24
1.4254e+00,-1.08,-0.72
1.4258e+00,-1.1,-1.3
1.4262e+00,-0.98,-0.74
1.4265e+00,-1.06,-1.24
1.4269e+00,-0.96,-0.74
1.4273e+00,-0.9,-1.26
1.4277e+00,-0.96,-0.78
1.4281e+00,-1.1,-1.3
1.4285e+00,-1,-0.78
1.4288e+00,-1,-1.22
1.4292e+00,-0.92,-0.74
1.4296e+00,-1.12,-1.26
1.4300e+00,-0.98,-0.72
1.4304e+00,-1.06,-1.22
1.4308e+00,-0.9,-0.78
1.4311e+00,-0.84,-1.26
1.4315e+00,-0.96,-0.72
1.4319e+00,-1.14,-1.24
1.4323e+00,-1.08,-0.78
1.4327e+00,-1,-1.28
1.4331e+00,-0.82,-0.72
1.4334e+00,-0.98,-1.22
1.4338e+00,-1.02,-0.78
1.4342e+00,-0.96,-1.22
1.4346e+00,-0.96,-0.78
1.4350e+00,-0.9,-1.24
1.4354e+00,-0.98,-0.7
1.4358e+00,-0.96,-1.24
1.4361e+00,-1,-0.78
1.4365e+00,-1,-1.22
1.4369e+00,-1,-0.76
1.4373e+00,-1.14,-1.22
1.4377e+00,-1.04,-0.76
1.4381e+00,-1.12,-1.22
1.4384e+00,-1.02,-0.76
1.4388e+00,-1,-1.22
1.4392e+00,-1.06,-0.78
1.4396e+00,-0.98,-1.26
1.4400e+00,-1,-0.78
1.4404e+00,-0.94,-1.26
1.4407e+00,-1,-0.8
1.4411e+00,-0.92,-1.22
1.4415e+00,-0.96,-0.7
1.4419e+00,-1,-1.22
1.4423e+00,-1.08,-0.78
1.4427e+00,-0.98,-1.22
1.4430e+00,-1.06,-0.78
1.4434e+00,-1.12,-1.24
1.4438e+00,-1.06,-0.76
1.4442e+00,-1.04,-1.24
1.4446e+00,-0.98,-0.76
1.4450e+00,-0.96,-1.32
1.4454e+00,-0.94,-0.78
1.4457e+00,-1.02,-1.22
1.4461e+00,-1,-0.74
1.4465e+00,-1.06,-1.24
1.4469e+00,-1.04,-0.68
1.4473e+00,-0.94,-1.22
1.4477e+00,-1.04,-0.78
1.4480e+00,-0.98,-1.3
1.4484e+00,-0.96,-0.74
1.4488e+00,-0.96,-1.26
1.4492e+00,-1.04,-0.76
1.4496e+00,-1.16,-1.26
1.4500e+00,-0.96,-0.76
1.4503e+00,-1.04,-1.24
1.4507e+00,-0.98,-0.74
1.4511e+00,-1.02,-1.22
1.4515e+00,-1.14,-0.74
1.4519e+00,-1.12,-1.24
1.4523e+00,-0.92,-0.7
1.4527e+00,-0.86,-1.22
1.4530e+00,-0.94,-0.76
1.4534e+00,-1.04,-1.24
1.4538e+00,-1.14,-0.76
1.4542e+00,-1.02,-1.24
1.4546e+00,-1.02,-0.78
1.4550e+00,-1.02,-1.24
1.4553e+00,-1.02,-0.74
1.4557e+00,-1.1,-1.24
1.4561e+00,-1,-0.68
1.4565e+00,-0.88,-1.26
1.4569e+00,-1.04,-0.76
1.4573e+00,-1,-1.24
1.4576e+00,-0.98,-0.74
1.4580e+00,-1.02,-1.24
1.4584e+00,-0.86,-0.74
1.4588e+00,-0.96,-1.22
1.4592e+00,-1.06,-0.78
1.4596e+00,-0.98,-1.28
1.4599e+00,-1.1,-0.72
1.4603e+00,-0.94,-1.28
1.4607e+00,-0.9,-0.8
1.4611e+00,-1,-1.26
1.4615e+00,-0.98,-0.66
1.4619e+00,-1.12,-1.22
1.4623e+00,-0.98,-0.76
1.4626e+00,-1,-1.22
1.4630e+00,-1.06,-0.7
1.4634e+00,-1.12,-1.26
1.4638e+00,-0.98,-0.76
1.4642e+00,-0.98,-1.26
1.4646e+00,-0.82,-0.78
1.4649e+00,-1.06,-1.26
1.4653e+00,-1.06,-0.76
1.4657e+00,-1.06,-1.26
1.4661e+00,-0.94,-0.78
1.4665e+00,-0.94,-1.26
1.4669e+00,-1.14,-0.78
1.4672e+00,-0.98,-1.3
1.4676e+00,-1.08,-0.78
1.4680e+00,-0.96,-1.24
1.4684e+00,-0.92,-0.7
1.4688e+00,-1.1,-1.24
1.4692e+00,-1.12,-0.74
1.4695e+00,-1.12,-1.26
1.4699e+00,-0.94,-0.8
1.4703e+00,-0.86,-1.26
1.4707e+00,-1,-0.76
1.4711e+00,-1.08,-1.26
1.4715e+00,-1.1,-0.72
1.4719e+00,-0.98,-1.32
1.4722e+00,-0.94,-0.74
1.4726e+00,-0.98,-1.26
1.4730e+00,-1.04,-0.74
1.4734e+00,-1.1,-1.24
1.4738e+00,-1.02,-0.78
1.4742e+00,-1.02,-1.24
1.4745e+00,-0.92,-0.8
1.4749e+00,-0.88,-1.24
1.4753e+00,-1.04,-0.76
1.4757e+00,-1.14,-1.26
1.4761e+00,-1.02,-0.78
1.4765e+00,-1.08,-1.24
1.4768e+00,-0.96,-0.72
1.4772e+00,-0.98,-1.24
1.4776e+00,-1.08,-0.72
1.4780e+00,-0.98,-1.24
1.4784e+00,-0.98,-0.78
1.4788e+00,-1.04,-1.24
1.4791e+00,-1.02,-0.74
1.4795e+00,-1.02,-1.22
1.4799e+00,-1.02,-0.74
1.4803e+00,-1.12,-1.32
1.4807e+00,-1.26,-0.76
1.4811e+00,-1.04,-1.26
1.4815e+00,-1.18,-0.8
1.4818e+00,-1,-1.28
1.4822e+00,-0.94,-0.7
1.4826e+00,-1.22,-1.28
1.4830e+00,-1.02,-0.76
1.4834e+00,-0.94,-1.24
1.4838e+00,-1.16,-0.76
1.4841e+00,-0.9,-1.24
1.4845e+00,-1.04,-0.76
1.4849e+00,-1.22,-1.28
1.4853e+00,-1.04,-0.74
1.4857e+00,-0.94,-1.24
1.4861e+00,-0.88,-0.78
1.4864e+00,-0.92,-1.26
1.4868e+00,-1.02,-0.76
1.4872e+00,-0.9,-1.26
1.4876e+00,-1.06,-0.76
1.4880e+00,-0.86,-1.24
1.4884e+00,-0.96,-0.74
1.4887e+00,-0.96,-1.26
1.4891e+00,-1.08,-0.76
1.4895e+00,-0.92,-1.24
1.4899e+00,-1,-0.74
1.4903e+00,-1.02,-1.28
1.4907e+00,-1.14,-0.78
1.4911e+00,-1.02,-1.24
1.4914e+00,-1,-0.76
1.4918e+00,-0.92,-1.26
1.4922e+00,-1,-0.78
1.4926e+00,-1.06,-1.24
1.4930e+00,-1.1,-0.72
1.4934e+00,-1.06,-1.24
1.4937e+00,-0.98,-0.76
1.4941e+00,-0.98,-1.26
1.4945e+00,-1.06,-0.76
1.4949e+00,-1,-1.24
1.4953e+00,-1.1,-0.7
1.4957e+00,-0.94,-1.24
1.4960e+00,-1.02,-0.76
1.4964e+00,-1.06,-1.3
1.4968e+00,-1.08,-0.76
1.4972e+00,-1.04,-1.26
1.4976e+00,-0.98,-0.74
1.4980e+00,-1,-1.24
1.4983e+00,-1.06,-0.8
1.4987e+00,-0.96,-1.2
1.4991e+00,-1.02,-0.76
1.4995e+00,-1.08,-1.22
1.4999e+00,-1.06,-0.78
1.5003e+00,-0.98,-1.26
1.5007e+00,-1.02,-0.76
1.5010e+00,-1.12,-1.22
1.5014e+00,-0.94,-0.78
1.5018e+00,-0.92,-1.28
1.5022e+00,-0.9,-0.76
1.5026e+00,-1.12,-1.28
1.5030e+00,-1.12,-0.74
1.5033e+00,-0.98,-1.22
1.5037e+00,-1.04,-0.7
1.5041e+00,-0.94,-1.28
1.5045e+00,-1.02,-0.76
1.5049e+00,-1.08,-1.26
1.5053e+00,-1.12,-0.76
1.5056e+00,-1.04,-1.26
1.5060e+00,-1.04,-0.76
1.5064e+00,-1.04,-1.26
1.5068e+00,-1,-0.74
1.5072e+00,-0.96,-1.26
1.5076e+00,-0.94,-0.76
1.5079e+00,-0.98,-1.24
1.5083e+00,-1.04,-0.76
1.5087e+00,-1.12,-1.24
1.5091e+00,-1.02,-0.72
1.5095e+00,-1.08,-1.2
1.5099e+00,-0.86,-0.72
1.5103e+00,-0.98,-1.26
1.5106e+00,-1.02,-0.76
1.5110e+00,-1.04,-1.22
1.5114e+00,-0.88,-0.74
1.5118e+00,-0.94,-1.28
1.5122e+00,-1.06,-0.8
1.5126e+00,-1.12,-1.22
1.5129e+00,-0.94,-0.74
1.5133e+00,-0.92,-1.24
1.5137e+00,-0.96,-0.74
1.5141e+00,-1.08,-1.3
1.5145e+00,-1.04,-0.74
1.5149e+00,-1,-1.24
1.5152e+00,-1.02,-0.7
1.5156e+00,-1,-1.26
1.5160e+00,-1.02,-0.74
1.5164e+00,-1,-1.28
1.5168e+00,-1,-0.76
1.5172e+00,-0.92,-1.26
1.5176e+00,-1.06,-0.76
1.5179e+00,-0.94,-1.24
1.5183e+00,-0.94,-0.78
1.5187e+00,-1.04,-1.28
1.5191e+00,-1,-0.76
1.5195e+00,-0.92,-1.24
1.5199e+00,-0.98,-0.74
1.5202e+00,-1.04,-1.26
1.5206e+00,-1.08,-0.76
1.5210e+00,-0.88,-1.24
1.5214e+00,-0.94,-0.76
1.5218e+00,-1.06,-1.26
1.5222e+00,-1.14,-0.72
1.5225e+00,-1.06,-1.28
1.5229e+00,-0.96,-0.78
1.5233e+00,-1.04,-1.26
1.5237e+00,-1,-0.76
1.5241e+00,-0.96,-1.24
1.5245e+00,-1.04,-0.8
1.5248e+00,-1.02,-1.22
1.5252e+00,-1,-0.72
1.5256e+00,-1.06,-1.26
1.5260e+00,-1.1,-0.74
1.5264e+00,-1.06,-1.24
1.5268e+00,-0.94,-0.76
1.5272e+00,-1.04,-1.26
1.5275e+00,-0.88,-0.78
1.5279e+00,-1.1,-1.26
1.5283e+00,-1,-0.76
1.5287e+00,-0.98,-1.2
1.5291e+00,-1.02,-0.78
1.5295e+00,-1.02,-1.26
1.5298e+00,-0.94,-0.74
1.5302e+00,-1.06,-1.26
1.5306e+00,-1.02,-0.76
1.5310e+00,-1.02,-1.28
1.5314e+00,-0.9,-0.78
1.5318e+00,-1.06,-1.26
1.5321e+00,-0.98,-0.74
1.5325e+00,-0.88,-1.22
1.5329e+00,-0.98,-0.78
1.5333e+00,-0.92,-1.26
1.5337e+00,-0.96,-0.74
1.5341e+00,-1,-1.24
1.5344e+00,-1,-0.78
1.5348e+00,-0.96,-1.26
1.5352e+00,-1.02,-0.78
1.5356e+00,-0.92,-1.24
1.5360e+00,-0.9,-0.78
1.5364e+00,-1.04,-1.24
1.5368e+00,-0.94,-0.76
1.5371e+00,-1,-1.28
1.5375e+00,-1,-0.72
1.5379e+00,-0.92,-1.22
1.5383e+00,-1.02,-0.78
1.5387e+00,-1.04,-1.26
1.5391e+00,-1.04,-0.78
1.5394e+00,-0.9,-1.26
1.5398e+00,-0.88,-0.78
1.5402e+00,-1.1,-1.26
1.5406e+00,-1.08,-0.76
1.5410e+00,-0.94,-1.3
1.5414e+00,-1,-0.8
1.5417e+00,-0.96,-1.24
1.5421e+00,-0.92,-0.74
1.5425e+00,-0.98,-1.28
1.5429e+00,-0.94,-0.78
1.5433e+00,-0.96,-1.24
1.5437e+00,-1.14,-0.74
1.5440e+00,-1.06,-1.26
1.5444e+00,-1.02,-0.76
1.5448e+00,-1.04,-1.26
1.5452e+00,-1,-0.78
1.5456e+00,-1.08,-1.2
1.5460e+00,-1.04,-0.66
1.5464e+00,-0.96,-1.26
1.5467e+00,-1.1,-0.72
1.5471e+00,-0.94,-1.24
1.5475e+00,-0.98,-0.72
1.5479e+00,-1.1,-1.28
1.5483e+00,-1.04,-0.8
1.5487e+00,-0.98,-1.26
1.5490e+00,-1.06,-0.74
1.5494e+00,-1.04,-1.24
1.5498e+00,-1.12,-0.72
1.5502e+00,-1.02,-1.24
1.5506e+00,-0.88,-0.74
1.5510e+00,-0.92,-1.28
1.5513e+00,-1,-0.76
1.5517e+00,-0.98,-1.26
1.5521e+00,-0.92,-0.76
1.5525e+00,-1.08,-1.3
1.5529e+00,-0.98,-0.74
1.5533e+00,-1.06,-1.24
1.5536e+00,-1.08,-0.76
1.5540e+00,-1.12,-1.26
1.5544e+00,-0.88,-0.72
1.5548e+00,-0.92,-1.28
1.5552e+00,-1.04,-0.8
1.5556e+00,-1.16,-1.3
1.5560e+00,-0.98,-0.78
1.5563e+00,-0.98,-1.3
1.5567e+00,-0.96,-0.78
1.5571e+00,-1.1,-1.26
1.5575e+00,-1.12,-0.76
1.5579e+00,-1.08,-1.26
1.5583e+00,-0.96,-0.76
1.5586e+00,-0.98,-1.22
1.5590e+00,-0.96,-0.74
1.5594e+00,-1.14,-1.28
1.5598e+00,-1,-0.82
1.5602e+00,-0.98,-1.3
1.5606e+00,-0.9,-0.78
1.5609e+00,-1.1,-1.28
1.5613e+00,-1.04,-0.76
1.5617e+00,-1.08,-1.26
1.5621e+00,-1.04,-0.74
1.5625e+00,-0.98,-1.2
1.5629e+00,-1,-0.7
1.5632e+00,-1.16,-1.22
1.5636e+00,-0.94,-0.74
1.5640e+00,-1.04,-1.26
1.5644e+00,-0.96,-0.78
1.5648e+00,-0.94,-1.28
1.5652e+00,-1.12,-0.76
1.5656e+00,-1.08,-1.3
1.5659e+00,-1.02,-0.76
1.5663e+00,-0.98,-1.3
1.5667e+00,-1,-0.78
1.5671e+00,-1.1,-1.24
1.5675e+00,-1,-0.78
1.5679e+00,-1.08,-1.28
1.5682e+00,-0.84,-0.76
1.5686e+00,-1.04,-1.22
1.5690e+00,-1.06,-0.78
1.5694e+00,-1.02,-1.22
1.5698e+00,-1,-0.74
1.5702e+00,-1.12,-1.3
1.5705e+00,-0.98,-0.72
1.5709e+00,-0.84,-1.2
1.5713e+00,-0.92,-0.72
1.5717e+00,-1.08,-1.28
1.5721e+00,-0.96,-0.74
1.5725e+00,-0.96,-1.24
1.5728e+00,-0.94,-0.74
1.5732e+00,-0.96,-1.2
1.5736e+00,-1.08,-0.78
1.5740e+00,-0.96,-1.22
1.5744e+00,-0.96,-0.78
1.5748e+00,-0.86,-1.32
1.5752e+00,-0.96,-0.7
1.5755e+00,-1.04,-1.3
1.5759e+00,-0.92,-0.72
1.5763e+00,-1,-1.22
1.5767e+00,-1.1,-0.76
1.5771e+00,-0.98,-1.26
1.5775e+00,-1,-0.74
1.5778e+00,-1.04,-1.24
1.5782e+00,-1,-0.74
1.5786e+00,-0.96,-1.28
1.5790e+00,-0.98,-0.74
1.5794e+00,-1,-1.26
1.5798e+00,-1.04,-0.74
1.5801e+00,-0.98,-1.26
1.5805e+00,-1.06,-0.74
1.5809e+00,-0.98,-1.26
1.5813e+00,-0.96,-0.68
1.5817e+00,-0.98,-1.24
1.5821e+00,-1.04,-0.74
1.5825e+00,-1.04,-1.26
1.5828e+00,-1.12,-0.78
1.5832e+00,-1.1,-1.28
1.5836e+00,-0.92,-0.76
1.5840e+00,-1.02,-1.32
1.5844e+00,-1.06,-0.74
1.5848e+00,-0.98,-1.26
1.5851e+00,-1.04,-0.74
1.5855e+00,-1.06,-1.28
1.5859e+00,-1.04,-0.8
1.5863e+00,-0.84,-1.22
1.5867e+00,-0.9,-0.74
1.5871e+00,-1.08,-1.24
1.5874e+00,-0.96,-0.78
1.5878e+00,-1.1,-1.24
1.5882e+00,-0.98,-0.8
1.5886e+00,-1,-1.28
1.5890e+00,-1,-0.72
1.5894e+00,-0.96,-1.22
1.5897e+00,-1,-0.76
1.5901e+00,-0.88,-1.28
1.5905e+00,-0.9,-0.78
1.5909e+00,-1.04,-1.28
1.5913e+00,-1.04,-0.7
1.5917e+00,-0.96,-1.24
1.5921e+00,-1,-0.78
1.5924e+00,-0.94,-1.28
1.5928e+00,-1.04,-0.76
1.5932e+00,-1.16,-1.3
1.5936e+00,-1.04,-0.76
1.5940e+00,-1.04,-1.22
1.5944e+00,-0.92,-0.76
1.5947e+00,-1.06,-1.28
1.5951e+00,-1.16,-0.74
1.5955e+00,-0.98,-1.26
1.5959e+00,-1.02,-0.8
1.5963e+00,-1,-1.24
1.5967e+00,-0.98,-0.76
1.5970e+00,-1,-1.24
1.5974e+00,-0.88,-0.72
1.5978e+00,-0.98,-1.26
1.5982e+00,-1.08,-0.8
1.5986e+00,-1.04,-1.26
1.5990e+00,-1.04,-0.76
1.5993e+00,-0.96,-1.26
1.5997e+00,-0.9,-0.76
1.6001e+00,-0.96,-1.24
1.6005e+00,-0.88,-0.76
1.6009e+00,-1.02,-1.24
1.6013e+00,-1,-0.78
1.6017e+00,-0.96,-1.24
1.6020e+00,-0.84,-0.78
1.6024e+00,-0.96,-1.28
1.6028e+00,-1.04,-0.7
1.6032e+00,-1.1,-1.28
1.6036e+00,-1,-0.76
1.6040e+00,-1.02,-1.24
1.6043e+00,-1.02,-0.7
1.6047e+00,-0.98,-1.26
1.6051e+00,-0.9,-0.72
1.6055e+00,-0.88,-1.26
1.6059e+00,-1.04,-0.78
1.6063e+00,-1.06,-1.24
1.6066e+00,-1,-0.8
1.6070e+00,-0.92,-1.24
1.6074e+00,-0.96,-0.74
1.6078e+00,-0.98,-1.22
1.6082e+00,-1.1,-0.78
1.6086e+00,-1.1,-1.22
1.6089e+00,-1,-0.76
1.6093e+00,-1,-1.24
1.6097e+00,-0.98,-0.7
1.6101e+00,-1.02,-1.32
1.6105e+00,-1.04,-0.76
1.6109e+00,-1.14,-1.24
1.6113e+00,-0.96,-0.74
1.6116e+00,-0.96,-1.24
1.6120e+00,-1.02,-0.76
1.6124e+00,-1,-1.22
1.6128e+00,-0.94,-0.76
1.6132e+00,-1,-1.26
1.6136e+00,-1.04,-0.76
1.6139e+00,-1.04,-1.24
1.6143e+00,-0.92,-0.78
1.6147e+00,-1.04,-1.28
1.6151e+00,-0.98,-0.76
1.6155e+00,-0.96,-1.26
1.6159e+00,-1.06,-0.8
1.6162e+00,-1.02,-1.28
1.6166e+00,-1.02,-0.72
1.6170e+00,-1.04,-1.26
1.6174e+00,-1.02,-0.74
1.6178e+00,-0.92,-1.24
1.6182e+00,-1.02,-0.76
1.6185e+00,-1.14,-1.24
1.6189e+00,-1.02,-0.76
1.6193e+00,-0.92,-1.3
1.6197e+00,-0.98,-0.76
1.6201e+00,-1.08,-1.22
1.6205e+00,-1.08,-0.74
1.6209e+00,-1.02,-1.18
1.6212e+00,-0.98,-0.74
1.6216e+00,-1.14,-1.2
1.6220e+00,-1.04,-0.76
1.6224e+00,-1.04,-1.24
1.6228e+00,-1.04,-0.76
1.6232e+00,-0.92,-1.26
1.6235e+00,-1.02,-0.74
1.6239e+00,-1.02,-1.2
1.6243e+00,-1.02,-0.72
1.6247e+00,-1.1,-1.24
1.6251e+00,-1.02,-0.78
1.6255e+00,-0.94,-1.22
1.6258e+00,-0.96,-0.68
1.6262e+00,-1.16,-1.22
1.6266e+00,-1,-0.78
1.6270e+00,-1.02,-1.2
1.6274e+00,-0.86,-0.76
1.6278e+00,-0.98,-1.26
1.6281e+00,-1.1,-0.78
1.6285e+00,-0.98,-1.3
1.6289e+00,-1,-0.76
1.6293e+00,-1,-1.22
1.6297e+00,-1.02,-0.74
1.6301e+00,-0.98,-1.24
1.6305e+00,-0.96,-0.76
1.6308e+00,-0.98,-1.26
1.6312e+00,-1,-0.78
1.6316e+00,-1.12,-1.24
1.6320e+00,-0.96,-0.8
1.6324e+00,-0.98,-1.26
1.6328e+00,-1,-0.74
1.6331e+00,-1.06,-1.26
1.6335e+00,-0.94,-0.78
1.6339e+00,-0.98,-1.26
1.6343e+00,-1,-0.78
1.6347e+00,-1.02,-1.28
1.6351e+00,-0.84,-0.78
1.6354e+00,-0.94,-1.26
1.6358e+00,-1.02,-0.74
1.6362e+00,-1,-1.22
1.6366e+00,-1.04,-0.74
1.6370e+00,-0.92,-1.24
1.6374e+00,-1,-0.7
1.6377e+00,-1.1,-1.32
1.6381e+00,-1.04,-0.7
1.6385e+00,-1.08,-1.28
1.6389e+00,-1,-0.7
1.6393e+00,-1.08,-1.28
1.6397e+00,-1.04,-0.74
1.6401e+00,-1.04,-1.22
1.6404e+00,-0.96,-0.76
1.6408e+00,-0.96,-1.28
1.6412e+00,-0.9,-0.74
1.6416e+00,-1.02,-1.24
1.6420e+00,-1.02,-0.78
1.6424e+00,-1.06,-1.24
1.6427e+00,-1.08,-0.76
1.6431e+00,-0.9,-1.28
1.6435e+00,-0.98,-0.76
1.6439e+00,-1.08,-1.3
1.6443e+00,-1.02,-0.76
1.6447e+00,-1.1,-1.28
1.6450e+00,-0.98,-0.72
1.6454e+00,-1,-1.26
1.6458e+00,-1.02,-0.74
1.6462e+00,-1.06,-1.22
1.6466e+00,-0.94,-0.76
1.6470e+00,-0.98,-1.3
1.6474e+00,-1.1,-0.78
1.6477e+00,-1,-1.24
1.6481e+00,-1.18,-0.76
1.6485e+00,-1.02,-1.28
1.6489e+00,-0.92,-0.76
1.6493e+00,-0.9,-1.3
1.6497e+00,-0.98,-0.72
1.6500e+00,-1.02,-1.26
1.6504e+00,-1.1,-0.76
1.6508e+00,-0.94,-1.24
1.6512e+00,-0.92,-0.76
1.6516e+00,-1.02,-1.24
1.6520e+00,-0.96,-0.8
1.6523e+00,-0.98,-1.22
1.6527e+00,-0.98,-0.72
1.6531e+00,-0.98,-1.28
1.6535e+00,-1,-0.78
1.6539e+00,-1.08,-1.24
1.6543e+00,-0.96,-0.74
1.6546e+00,-0.96,-1.26
1.6550e+00,-0.98,-0.76
1.6554e+00,-1,-1.24
1.6558e+00,-1.14,-0.76
1.6562e+00,-0.88,-1.3
1.6566e+00,-1.06,-0.68
1.6570e+00,-0.96,-1.24
1.6573e+00,-1.06,-0.74
1.6577e+00,-1,-1.26
1.6581e+00,-1.08,-0.74
1.6585e+00,-1.06,-1.24
1.6589e+00,-0.9,-0.78
1.6593e+00,-1.08,-1.22
1.6596e+00,-1.04,-0.74
1.6600e+00,-0.94,-1.28
1.6604e+00,-0.92,-0.8
1.6608e+00,-1.06,-1.22
1.6612e+00,-0.98,-0.78
1.6616e+00,-1.02,-1.22
1.6619e+00,-1.06,-0.78
1.6623e+00,-1.04,-1.24
1.6627e+00,-0.9,-0.78
1.6631e+00,-1,-1.28
1.6635e+00,-1.12,-0.68
1.6639e+00,-1.12,-1.2
1.6642e+00,-1.04,-0.76
1.6646e+00,-1.04,-1.26
1.6650e+00,-0.98,-0.74
1.6654e+00,-1,-1.24
1.6658e+00,-1.02,-0.78
1.6662e+00,-0.94,-1.28
1.6666e+00,-0.98,-0.76
1.6669e+00,-0.96,-1.22
1.6673e+00,-1.08,-0.78
1.6677e+00,-0.88,-1.24
1.6681e+00,-0.88,-0.78
1.6685e+00,-1,-1.22
1.6689e+00,-0.94,-0.8
1.6692e+00,-1.16,-1.24
1.6696e+00,-0.96,-0.76
1.6700e+00,-0.96,-1.26
1.6704e+00,-0.94,-0.72
1.6708e+00,-0.9,-1.22
1.6712e+00,-0.92,-0.74
1.6715e+00,-1.06,-1.26
1.6719e+00,-0.94,-0.8
1.6723e+00,-0.96,-1.22
1.6727e+00,-1,-0.76
1.6731e+00,-1,-1.34
1.6735e+00,-1,-0.68
1.6738e+00,-1.02,-1.24
1.6742e+00,-1,-0.78
1.6746e+00,-0.94,-1.26
1.6750e+00,-0.96,-0.72
1.6754e+00,-1.04,-1.3
1.6758e+00,-0.96,-0.76
1.6762e+00,-0.98,-1.24
1.6765e+00,-1.1,-0.78
1.6769e+00,-1,-1.22
1.6773e+00,-1.06,-0.76
1.6777e+00,-1,-1.26
1.6781e+00,-0.92,-0.78
1.6785e+00,-1,-1.26
1.6788e+00,-1,-0.74
1.6792e+00,-1.04,-1.24
1.6796e+00,-1.16,-0.78
1.6800e+00,-0.9,-1.28
1.6804e+00,-0.96,-0.78
1.6808e+00,-1.16,-1.26
1.6811e+00,-0.98,-0.7
1.6815e+00,-1.02,-1.24
1.6819e+00,-1.1,-0.76
1.6823e+00,-0.9,-1.22
1.6827e+00,-1.1,-0.7
1.6831e+00,-1.12,-1.22
1.6834e+00,-1.12,-0.72
1.6838e+00,-0.96,-1.28
1.6842e+00,-0.96,-0.76
1.6846e+00,-0.98,-1.24
1.6850e+00,-1.14,-0.76
1.6854e+00,-1.08,-1.28
1.6858e+00,-0.98,-0.72
1.6861e+00,-0.86,-1.26
1.6865e+00,-1,-0.74
1.6869e+00,-1.12,-1.28
1.6873e+00,-1.02,-0.72
1.6877e+00,-1.14,-1.24
1.6881e+00,-0.96,-0.74
1.6884e+00,-0.92,-1.22
1.6888e+00,-1.04,-0.76
1.6892e+00,-1.1,-1.2
1.6896e+00,-1,-0.74
1.6900e+00,-0.96,-1.24
1.6904e+00,-1,-0.74
1.6907e+00,-0.96,-1.26
1.6911e+00,-1.06,-0.74
1.6915e+00,-1.08,-1.22
1.6919e+00,-0.96,-0.8
1.6923e+00,-0.9,-1.24
1.6927e+00,-1.08,-0.74
1.6930e+00,-1.12,-1.24
1.6934e+00,-0.98,-0.7
1.6938e+00,-0.98,-1.2
1.6942e+00,-0.94,-0.7
1.6946e+00,-1.06,-1.24
1.6950e+00,-1.04,-0.72
1.6954e+00,-0.86,-1.24
1.6957e+00,-0.98,-0.76
1.6961e+00,-1.04,-1.32
1.6965e+00,-0.96,-0.74
1.6969e+00,-1.14,-1.26
1.6973e+00,-1,-0.78
1.6977e+00,-0.98,-1.26
1.6980e+00,-0.98,-0.8
1.6984e+00,-0.96,-1.32
1.6988e+00,-1.06,-0.8
1.6992e+00,-1.1,-1.24
1.6996e+00,-0.98,-0.78
1.7000e+00,-0.96,-1.26
1.7003e+00,-0.92,-0.74
1.7007e+00,-1.06,-1.24
1.7011e+00,-1.04,-0.76
1.7015e+00,-0.96,-1.22
1.7019e+00,-0.88,-0.76
1.7023e+00,-0.86,-1.22
1.7027e+00,-0.96,-0.76
1.7030e+00,-0.98,-1.28
1.7034e+00,-0.94,-0.76
1.7038e+00,-0.94,-1.26
1.7042e+00,-1.14,-0.8
1.7046e+00,-1.04,-1.22
1.7050e+00,-1,-0.74
1.7053e+00,-0.96,-1.3
1.7057e+00,-1,-0.74
1.7061e+00,-0.96,-1.28
1.7065e+00,-1.02,-0.76
1.7069e+00,-1.02,-1.28
1.7073e+00,-0.92,-0.76
1.7076e+00,-1.04,-1.32
1.7080e+00,-1,-0.74
1.7084e+00,-0.92,-1.32
1.7088e+00,-1,-0.76
1.7092e+00,-1.04,-1.26
1.7096e+00,-0.96,-0.76
1.7099e+00,-0.92,-1.34
1.7103e+00,-1.06,-0.76
1.7107e+00,-1.06,-1.28
1.7111e+00,-1.02,-0.72
1.7115e+00,-1.2,-1.26
1.7119e+00,-1.12,-0.7
1.7123e+00,-0.98,-1.24
1.7126e+00,-1,-0.78
1.7130e+00,-1,-1.22
1.7134e+00,-0.94,-0.74
1.7138e+00,-1.02,-1.24
1.7142e+00,-0.96,-0.68
1.7146e+00,-0.94,-1.28
1.7149e+00,-1.12,-0.78
1.7153e+00,-1.06,-1.24
1.7157e+00,-1,-0.74
1.7161e+00,-1.1,-1.26
1.7165e+00,-0.96,-0.76
1.7169e+00,-1.12,-1.28
1.7172e+00,-1,-0.76
1.7176e+00,-1.04,-1.24
1.7180e+00,-0.96,-0.78
1.7184e+00,-1.08,-1.3
1.7188e+00,-0.92,-0.68
1.7192e+00,-0.86,-1.24
1.7195e+00,-0.9,-0.78
1.7199e+00,-1.02,-1.26
1.7203e+00,-1.06,-0.78
1.7207e+00,-0.96,-1.22
1.7211e+00,-0.94,-0.64
1.7215e+00,-0.88,-1.24
1.7219e+00,-0.96,-0.76
1.7222e+00,-1.02,-1.24
1.7226e+00,-1.04,-0.76
1.7230e+00,-1.02,-1.24
1.7234e+00,-0.94,-0.72
1.7238e+00,-0.92,-1.26
1.7242e+00,-1.1,-0.74
1.7245e+00,-0.98,-1.26
1.7249e+00,-1.16,-0.78
1.7253e+00,-1,-1.24
1.7257e+00,-1,-0.78
1.7261e+00,-1.12,-1.28
1.7265e+00,-1.06,-0.76
1.7268e+00,-1.02,-1.22
1.7272e+00,-0.94,-0.76
1.7276e+00,-1.1,-1.2
1.7280e+00,-1.04,-0.76
1.7284e+00,-1.08,-1.28
1.7288e+00,-1.06,-0.78
1.7291e+00,-1.04,-1.22
1.7295e+00,-1.06,-0.7
1.7299e+00,-1.08,-1.2
1.7303e+00,-1.08,-0.7
1.7307e+00,-0.88,-1.26
1.7311e+00,-1.14,-0.78
1.7315e+00,-0.98,-1.26
1.7318e+00,-1.08,-0.78
1.7322e+00,-1.06,-1.3
1.7326e+00,-1,-0.76
1.7330e+00,-1.04,-1.26
1.7334e+00,-1.04,-0.78
1.7338e+00,-1.02,-1.26
1.7341e+00,-1.1,-0.74
1.7345e+00,-1.04,-1.28
1.7349e+00,-1.04,-0.74
1.7353e+00,-0.94,-1.22
1.7357e+00,-1.08,-0.78
1.7361e+00,-1.08,-1.28
1.7364e+00,-1.1,-0.72
1.7368e+00,-1.06,-1.24
1.7372e+00,-0.92,-0.76
1.7376e+00,-0.98,-1.22
1.7380e+00,-1.12,-0.76
1.7384e+00,-1.12,-1.24
1.7387e+00,-0.96,-0.76
1.7391e+00,-0.98,-1.24
1.7395e+00,-1,-0.74
1.7399e+00,-0.98,-1.24
1.7403e+00,-1,-0.72
1.7407e+00,-1.08,-1.2
1.7411e+00,-1.02,-0.78
1.7414e+00,-1.06,-1.26
1.7418e+00,-1.02,-0.76
1.7422e+00,-1,-1.26
1.7426e+00,-0.96,-0.74
1.7430e+00,-1.04,-1.26
1.7434e+00,-0.96,-0.74
1.7437e+00,-1.02,-1.26
1.7441e+00,-0.92,-0.76
1.7445e+00,-0.94,-1.26
1.7449e+00,-0.94,-0.7
1.7453e+00,-1.16,-1.26
1.7457e+00,-1.02,-0.76
1.7460e+00,-1.08,-1.26
1.7464e+00,-1.02,-0.78
1.7468e+00,-1.04,-1.26
1.7472e+00,-1.08,-0.72
1.7476e+00,-1,-1.3
1.7480e+00,-1.06,-0.78
1.7483e+00,-1,-1.26
1.7487e+00,-1,-0.78
1.7491e+00,-0.84,-1.28
1.7495e+00,-1,-0.76
1.7499e+00,-1.06,-1.24
1.7503e+00,-0.96,-0.78
1.7507e+00,-0.96,-1.3
1.7510e+00,-1,-0.8
1.7514e+00,-0.96,-1.24
1.7518e+00,-1.06,-0.78
1.7522e+00,-0.92,-1.24
1.7526e+00,-1.02,-0.74
1.7530e+00,-1.08,-1.24
1.7533e+00,-1.1,-0.7
1.7537e+00,-0.98,-1.22
1.7541e+00,-1,-0.8
1.7545e+00,-0.98,-1.22
1.7549e+00,-0.98,-0.72
1.7553e+00,-1.1,-1.24
1.7556e+00,-1.1,-0.72
1.7560e+00,-0.92,-1.24
1.7564e+00,-0.94,-0.72
1.7568e+00,-1.08,-1.24
1.7572e+00,-1.04,-0.76
1.7576e+00,-1.1,-1.26
1.7579e+00,-1.24,-0.82
1.7583e+00,-0.98,-1.26
1.7587e+00,-1.04,-0.74
1.7591e+00,-1.06,-1.28
1.7595e+00,-1.02,-0.76
1.7599e+00,-1.02,-1.28
1.7603e+00,-1,-0.8
1.7606e+00,-0.92,-1.24
1.7610e+00,-0.96,-0.76
1.7614e+00,-1.12,-1.3
1.7618e+00,-1.04,-0.68
1.7622e+00,-0.98,-1.26
1.7626e+00,-0.94,-0.7
1.7629e+00,-1.06,-1.24
1.7633e+00,-1.14,-0.72
1.7637e+00,-1.08,-1.28
1.7641e+00,-0.94,-0.76
1.7645e+00,-1.02,-1.3
1.7649e+00,-0.96,-0.8
1.7652e+00,-0.94,-1.22
1.7656e+00,-1.08,-0.76
1.7660e+00,-1.26,-1.3
1.7664e+00,-0.96,-0.76
1.7668e+00,-1,-1.26
1.7672e+00,-1,-0.72
1.7676e+00,-0.9,-1.24
1.7679e+00,-1.06,-0.8
1.7683e+00,-0.98,-1.3
1.7687e+00,-0.98,-0.76
1.7691e+00,-1.02,-1.24
1.7695e+00,-1.1,-0.76
1.7699e+00,-1.12,-1.24
1.7702e+00,-0.86,-0.74
1.7706e+00,-1.08,-1.22
1.7710e+00,-1.06,-0.7
1.7714e+00,-1,-1.28
1.7718e+00,-1.08,-0.8
1.7722e+00,-1.02,-1.34
1.7725e+00,-1.06,-0.74
1.7729e+00,-0.98,-1.26
1.7733e+00,-1.02,-0.74
1.7737e+00,-0.96,-1.26
1.7741e+00,-0.9,-0.76
1.7745e+00,-0.98,-1.28
1.7748e+00,-1.04,-0.72
1.7752e+00,-0.98,-1.22
1.7756e+00,-1.06,-0.76
1.7760e+00,-0.92,-1.22
1.7764e+00,-0.88,-0.72
1.7768e+00,-0.9,-1.22
1.7772e+00,-1.04,-0.76
1.7775e+00,-0.98,-1.22
1.7779e+00,-0.96,-0.8
1.7783e+00,-0.9,-1.24
1.7787e+00,-1.02,-0.76
1.7791e+00,-1,-1.26
1.7795e+00,-1.02,-0.74
1.7798e+00,-1.06,-1.22
1.7802e+00,-1.04,-0.78
1.7806e+00,-1.08,-1.3
1.7810e+00,-0.98,-0.74
1.7814e+00,-1.08,-1.2
1.7818e+00,-1,-0.74
1.7821e+00,-0.98,-1.28
1.7825e+00,-1.06,-0.8
1.7829e+00,-0.92,-1.3
1.7833e+00,-1.02,-0.78
1.7837e+00,-1.04,-1.28
1.7841e+00,-0.88,-0.76
1.7844e+00,-0.9,-1.26
1.7848e+00,-0.98,-0.76
1.7852e+00,-1.06,-1.24
1.7856e+00,-0.98,-0.78
1.7860e+00,-0.96,-1.32
1.7864e+00,-0.98,-0.72
1.7868e+00,-1.04,-1.26
1.7871e+00,-1.06,-0.76
1.7875e+00,-0.98,-1.24
1.7879e+00,-0.98,-0.78
1.7883e+00,-1.08,-1.28
1.7887e+00,-0.84,-0.78
1.7891e+00,-1.16,-1.26
1.7894e+00,-1.16,-0.68
1.7898e+00,-0.92,-1.28
1.7902e+00,-1.04,-0.74
1.7906e+00,-0.96,-1.28
1.7910e+00,-1.04,-0.78
1.7914e+00,-1.04,-1.24
1.7917e+00,-0.86,-0.78
1.7921e+00,-1,-1.24
1.7925e+00,-1.08,-0.76
1.7929e+00,-0.96,-1.3
1.7933e+00,-0.96,-0.76
1.7937e+00,-0.94,-1.24
1.7940e+00,-0.98,-0.76
1.7944e+00,-0.96,-1.24
1.7948e+00,-1.08,-0.74

